Energy_(eV)	Live_Counts
9550.0	21.72937103
9550.25	22.465966539999997
9550.5	23.20884035
9550.75	24.68934734
9551.0	20.98686239
9551.25	21.23560583
9551.5	22.71647741
9551.75	24.938394399999996
9552.0	20.247401900000003
9552.25	21.482702000000003
9552.5	21.72559195
9552.75	25.430696879999996
9553.0	21.9764676
9553.25	23.210974519999997
9553.5	26.172839489999994
9553.75	23.702058429999997
9554.0	28.391283099999995
9554.25	24.44328726
9554.5	19.010883189999998
9554.75	27.40661502
9555.0	20.24618273
9555.25	25.183661569999998
9555.5	24.44474973
9555.75	29.38100982
9556.0	31.112025809999995
9556.25	24.69209026
9556.5	27.159946119999997
9556.75	28.644719900000002
9557.0	26.172778979999997
9557.25	33.08885901
9557.5	35.06038799
9557.75	36.78799163
9558.0	40.2469136
9558.25	32.8403599
9558.5	37.5282433
9558.75	34.81231582
9559.0	34.56845051
9559.25	39.506173509999996
9559.5	38.765432090000004
9559.75	41.48300686
9560.0	48.14747928
9560.25	42.717208039999996
9560.5	48.396709009999995
9560.75	48.643438880000005
9561.0	52.83956789999999
9561.25	58.0269486
9561.5	54.81432815
9561.75	58.76470596
9562.0	63.943731
9562.25	68.15217287
9562.5	71.60012312999999
9562.75	70.61905386
9563.0	82.21106966
9563.25	91.3630271
9563.5	82.72202549000001
9563.75	96.78652870000002
9564.0	104.20534
9564.25	112.096025
9564.5	111.1106863
9564.75	112.58503829999998
9565.0	123.9470846
9565.25	140.2330167
9565.5	131.8317404
9565.75	140.4748153
9566.0	156.8064055
9566.25	146.419268
9566.5	156.0600544
9566.75	179.98835830000002
9567.0	186.14389409999998
9567.25	189.61701970000001
9567.5	200.75635200000002
9567.75	225.1694597
9568.0	239.53008609999998
9568.25	266.181133
9568.5	286.92279900000005
9568.75	310.13340220000003
9569.0	367.665792
9569.25	392.0571559
9569.5	447.60904200000004
9569.75	476.3135701
9570.0	533.1040098999999
9570.25	565.4525885
9570.5	601.2776817
9570.75	684.7901488
9571.0	715.0579607999999
9571.25	740.9899240000001
9571.5	775.1739960000001
9571.75	780.054517
9572.0	825.0241330000001
9572.25	838.298635
9572.5	889.0722000000001
9572.75	937.350497
9573.0	946.915243
9573.25	1011.6332100000001
9573.5	1005.819026
9573.75	1040.398103
9574.0	1040.281795
9574.25	1025.2593390000002
9574.5	959.1136540000001
9574.75	924.2312850000001
9575.0	845.2161189999999
9575.25	812.3170920000001
9575.5	718.0754646999999
9575.75	644.0376990000001
9576.0	601.4400346
9576.25	541.957277
9576.5	492.8067145
9576.75	460.75665699999996
9577.0	401.01546190000005
9577.25	392.34568579999996
9577.5	359.0627228
9577.75	332.827072
9578.0	333.08648680000005
9578.25	302.4259879
9578.5	291.38863719999995
9578.75	287.1589746
9579.0	256.3248397
9579.25	254.824206
9579.5	222.97942780000002
9579.75	207.6423246
9580.0	198.03883910000002
9580.25	187.1532405
9580.5	168.17113809999998
9580.75	153.09221300000002
9581.0	137.782781
9581.25	147.891119
9581.5	128.1522948
9581.75	121.99213950000001
9582.0	119.0054581
9582.25	110.11595989999998
9582.5	107.4074075
9582.75	92.8549363
9583.0	95.5459272
9583.25	92.1081565
9583.5	77.28121139000001
9583.75	82.72111236
9584.0	72.59088747
9584.25	70.61594492
9584.5	70.37043281
9584.75	70.86157661
9585.0	61.48544522
9585.25	63.20878297
9585.5	56.54223553999999
9585.75	43.705716970000005
9586.0	52.84115365
9586.25	43.70242463
9586.5	46.41877856999999
9586.75	43.70370372
9587.0	41.481239130000006
9587.25	38.51967843
9587.5	36.54412634
9587.75	33.08489646
9588.0	36.048163689999996
9588.25	31.357172029999997
9588.5	31.85276656
9588.75	27.16360435
9589.0	34.56790123
9589.25	29.629569150000002
9589.5	23.947264949999997
9589.75	27.89824794
9590.0	32.097729939999994
9590.25	24.69154284
9590.5	23.453194500000002
9590.75	25.677793880000003
9591.0	20.494925170000002
9591.25	20.73769318
9591.5	22.71604936
9591.75	20.24587766
9592.0	24.193752499999995
9592.25	20.24801123
9592.5	17.03685468
9592.75	17.52964573
9593.0	16.54351522
9593.25	17.531535299999998
9593.5	18.76689564
9593.75	16.78951417
9594.0	15.802713319999999
9594.25	17.78040038
9594.5	17.28303633
9594.75	17.2821224
9595.0	13.82667311
9595.25	14.814266240000002
9595.5	12.344826312999999
9595.75	13.826369049999998
9596.0	15.55622655
9596.25	16.29574772
9596.5	13.57927168
9596.75	13.82661192
9597.0	12.34659387
9597.25	12.34647176
9597.5	15.801798660000001
9597.75	14.81548578
9598.0	8.394818039
9598.25	11.358878507999998
9598.5	10.862917757999998
9598.75	13.332479997
9599.0	9.136168352
9599.25	11.111842880000001
9599.5	13.086115439999999
9599.75	11.850815678
9600.0	12.346532742
9600.25	10.617101356
9600.5	11.604694666
9600.75	11.604877426
9601.0	9.876726322
9601.25	12.098339001
9601.5	7.654686872999999
9601.75	9.135071041
9602.0	9.630544349
9602.25	9.629690843999999
9602.5	9.874959010000001
9602.75	9.877153196000002
9603.0	9.383630764
9603.25	7.408444300999999
9603.5	9.382289381
9603.75	8.641365852
9604.0	7.901112661
9604.25	10.863588004999999
9604.5	10.124310522
9604.75	10.369578201000001
9605.0	7.900320380999999
9605.25	6.172290941
9605.5	8.641121985
9605.75	6.4198140630000005
9606.0	8.642524136
9606.25	9.136107372
9606.5	8.888767158
9606.75	11.603597341999999
9607.0	7.408017311999999
9607.25	9.381984626000001
9607.5	7.653955271000001
9607.75	9.877884797
9608.0	10.864076077999998
9608.25	7.653955272
9608.5	8.148331267
9608.75	8.148575166
9609.0	7.160494156
9609.25	8.887670044
9609.5	10.12412794
9609.75	8.148697098
9610.0	7.900990759
9610.25	12.839140631
9610.5	11.604633811
9610.75	7.653894384
9611.0	10.617710961
9611.25	10.122847422
9611.5	7.901112839000001
9611.75	8.146441710000001
9612.0	10.617832772
9612.25	5.678646636999999
9612.5	6.913458341
9612.75	8.642158248
9613.0	9.135314849999999
9613.25	6.666727766
9613.5	9.630117689999999
9613.75	7.900564102000001
9614.0	6.913336438999999
9614.25	6.1727177509999995
9614.5	5.432220967
9614.75	8.395305648999999
9615.0	7.9007469530000005
9615.25	9.135010092
9615.5	8.642036376
9615.75	7.406066473
9616.0	5.926230925
9616.25	5.9258653059999995
9616.5	7.653955485999999
9616.75	7.161042655999999
9617.0	7.40862703
9617.25	7.653528615
9617.5	7.4053355960000005
9617.75	8.14778264
9618.0	7.159884366
9618.25	11.6044508
9618.5	7.406980863
9618.75	7.654869936999999
9619.0	7.653833679999999
9619.25	9.135192948
9619.5	6.913885211
9619.75	9.135253898
9620.0	6.91345846
9620.25	8.395549812
9620.5	7.4066760149999995
9620.75	7.4083221230000005
9621.0	6.419387463
9621.25	7.901417748
9621.5	8.149002039
9621.75	7.407163715000001
9622.0	8.148818937
9622.25	7.407468474
9622.5	7.901356619999999
9622.75	9.134340269
9623.0	8.394330305
9623.25	7.406554238
9623.5	7.407224909
9623.75	6.913580243
9624.0	7.4082611400000005
9624.25	6.913275632
9624.5	8.641426892
9624.75	6.91382423
9625.0	4.938027798
9625.25	8.889072283
9625.5	11.110623491
9625.75	7.159823415000001
9626.0	7.407102645
9626.25	8.394635059
9626.5	6.419509335999999
9626.75	5.925682119
9627.0	8.148148141
9627.25	6.1727785520000005
9627.5	5.677854418
9627.75	4.937966844
9628.0	9.381984864
9628.25	8.888096631
9628.5	9.383142913
9628.75	5.679256271999999
9629.0	5.927389713
9629.25	6.419753084000001
9629.5	9.629446769
9629.75	6.666544762999999
9630.0	6.991136862000001
9630.25	8.089827173
9630.5	6.791439546
9630.75	7.815106907
9631.0	7.490528230000001
9631.25	8.63910936
9631.5	7.4154890830000015
9631.75	7.1161023750000005
9632.0	7.96493209
9632.25	7.790156818
9632.5	6.841345958000001
9632.75	7.240867763999999
9633.0	7.915058113
9633.25	6.666633007
9633.5	6.866319101999999
9633.75	7.665384563000001
9634.0	7.066058826000001
9634.25	7.940078024
9634.5	7.5154801860000005
9634.75	7.64032787
9635.0	6.916204937000001
9635.25	6.61660254
9635.5	7.041106866
9635.75	7.890006415
9636.0	7.8401392780000005
9636.25	7.365678055
9636.5	7.840113726
9636.75	6.891262333000001
9637.0	7.515554375
9637.25	7.440542027
9637.5	7.515442789
9637.75	7.365654353
9638.0	7.315757927
9638.25	6.391910238
9638.5	6.566665581
9638.75	7.565409665000001
9639.0	7.3157305090000015
9639.25	7.240839711
9639.5	7.715275386
9639.75	6.816317935
9640.0	7.390602570999999
9640.25	7.56543335
9640.5	7.665267353
9640.75	6.6915861979999995
9641.0	8.139740448000001
9641.25	6.891264819
9641.5	7.3906324969999995
9641.75	7.066040732
9642.0	7.590461365000001
9642.25	6.541772228000001
9642.5	7.790148093999999
9642.75	7.066024535
9643.0	7.765176188
9643.25	7.490558146
9643.5	7.490507038
9643.75	7.740130096
9644.0	8.314457118
9644.25	8.489330294000002
9644.5	7.939936498
9644.75	8.389451391
9645.0	7.590417733
9645.25	8.31444777
9645.5	7.865025790000001
9645.75	8.464244310000002
9646.0	9.13848016
9646.25	8.139648794000001
9646.5	8.38942645
9646.75	8.73892343
9647.0	9.0385414
9647.25	8.464354646999999
9647.5	7.790125022999999
9647.75	8.81385722
9648.0	8.83890893
9648.25	8.289547552999998
9648.5	8.439299819999999
9648.75	9.68769314
9649.0	8.414329160000001
9649.25	8.264554450000002
9649.5	8.614053283999999
9649.75	8.06486212
9650.0	8.414330399999999
9650.25	8.764003181
9650.5	8.564148137999998
9650.75	8.913796569999999
9651.0	9.488039449999999
9651.25	9.91243032
9651.5	10.88624801
9651.75	10.33685796
9652.0	9.78769173
9652.25	10.461698179999999
9652.5	10.41179989
9652.75	10.2371287
9653.0	11.46059434
9653.25	10.736420930000001
9653.5	11.26080352
9653.75	11.18594766
9654.0	11.410451669999999
9654.25	10.43680856
9654.5	11.03597906
9654.75	10.61154955
9655.0	11.735197430000001
9655.25	12.0846227
9655.5	13.13333429
9655.75	12.6840164
9656.0	15.28078728
9656.25	14.556706739999997
9656.5	17.07858935
9656.75	18.52658461
9657.0	20.74869336
9657.25	21.09831002
9657.5	22.921123889999997
9657.75	23.145650970000002
9658.0	25.46798587
9658.25	24.319139169999996
9658.5	23.445373699999998
9658.75	22.446628370000003
9659.0	19.65002238
9659.25	19.10091164
9659.5	17.5778342
9659.75	15.330632590000002
9660.0	14.90605034
9660.25	12.98352964
9660.5	12.70907371
9660.75	11.48540543
9661.0	10.636554510000002
9661.25	10.386865360000002
9661.5	9.138350489999999
9661.75	9.08844157
9662.0	9.113468968000001
9662.25	8.589078899999999
9662.5	8.014864064
9662.75	7.565481361999999
9663.0	8.539145659999999
9663.25	8.68904008
9663.5	8.13979529
9663.75	8.089711224
9664.0	7.964875364
9664.25	7.215846612
9664.5	8.589136859999998
9664.75	7.265838432999999
9665.0	8.489266690000001
9665.25	7.515525701
9665.5	8.039874621
9665.75	8.089775430000001
9666.0	7.041100009
9666.25	7.939938374
9666.5	6.991161808000001
9666.75	7.0910737500000005
9667.0	8.289549432
9667.25	6.092299733999999
9667.5	7.565377858
9667.75	7.665317227
9668.0	7.565408408999999
9668.25	7.365638769000001
9668.5	7.715302201000001
9668.75	6.96626596
9669.0	7.290772926000001
9669.25	7.4156542750000005
9669.5	7.465584375
9669.75	7.140866689999999
9670.0	7.265825340999999
9670.25	6.791433305
9670.5	6.9661232
9670.75	7.066091235999999
9671.0	6.2420831670000005
9671.25	6.267037618
9671.5	6.24217793
9671.75	5.94250944
9672.0	6.217143053
9672.25	5.742721102
9672.5	6.466811626
9672.75	6.741429652999999
9673.0	6.641585030999999
9673.25	6.816360335000001
9673.5	6.566704227999999
9673.75	6.666530763
9674.0	6.591671144999999
9674.25	6.541636938
9674.5	5.642908906000001
9674.75	6.84141765
9675.0	6.741428401000001
9675.25	6.916243585
9675.5	6.341953332999999
9675.75	6.042337842
9676.0	6.841348444000001
9676.25	6.192194215999999
9676.5	6.192106315
9676.75	5.992422707
9677.0	7.0910307260000005
9677.25	6.3919719630000005
9677.5	6.267029514
9677.75	6.3170500050000005
9678.0	5.867581878
9678.25	5.967351056
9678.5	6.2170981670000005
9678.75	5.642866518999999
9679.0	6.117307177000001
9679.25	5.767643753000001
9679.5	5.617858452
9679.75	6.067244911
9680.0	5.842543267
9680.25	5.118510103
9680.5	6.1921935900000005
9680.75	5.3682609580000005
9681.0	6.267029509
9681.25	5.542978272
9681.5	5.842609972
9681.75	5.268319097
9682.0	5.468121776
9682.25	5.418109387
9682.5	5.268375829000001
9682.75	5.193428938
9683.0	5.218389
9683.25	5.518048133
9683.5	5.393104438
9683.75	4.868863359000001
9684.0	5.717730491999999
9684.25	5.568016257
9684.5	5.3182223870000005
9684.75	5.667818475000001
9685.0	5.617867183
9685.25	5.443157351
9685.5	5.168500672
9685.75	5.043625557
9686.0	4.993666782
9686.25	5.018640558
9686.5	4.918762285
9686.75	5.3931555609999995
9687.0	5.0935662520000005
9687.25	6.0423453270000005
9687.5	5.04356945
9687.75	5.418200408000001
9688.0	5.018694795000001
9688.25	5.542995727
9688.5	5.393131874
9688.75	5.443085656999999
9689.0	5.268333437
9689.25	5.318253559
9689.5	5.143483884
9689.75	5.318236726
9690.0	4.594178003
9690.25	4.9437504
9690.5	5.393143093
9690.75	5.268319719
9691.0	4.968729788
9691.25	4.744057443
9691.5	5.642834097
9691.75	4.7939357949999994
9692.0	4.918744206000001
9692.25	4.768935212000001
9692.5	5.1684414489999995
9692.75	5.71773174
9693.0	4.943741052
9693.25	5.567950798
9693.5	5.093533213
9693.75	5.717729871
9694.0	4.968701112
9694.25	4.719052495
9694.5	4.893817809
9694.75	5.592945149000001
9695.0	4.194701692000001
9695.25	4.993759049
9695.5	4.544284688
9695.75	5.343246037
9696.0	4.6690825
9696.25	4.344439619
9696.5	5.493015135
9696.75	5.443139271000001
9697.0	3.820156142
9697.25	4.818870921
9697.5	4.719045014
9697.75	5.293277284
9698.0	4.743979516
9698.25	4.968702982
9698.5	4.968694877
9698.75	4.394437665999999
9699.0	5.143438995
9699.25	4.24466795
9699.5	4.6440906449999995
9699.75	4.818932016
9700.0	5.443105609
