Energy_(eV)	Live_Counts
9550.0	34.564488361
9550.25	29.377840549999995
9550.5	28.144613082
9550.75	38.76262953
9551.0	26.170828489999995
9551.25	38.020546659999994
9551.5	30.11870305
9551.75	34.81262055
9552.0	35.54964327
9552.25	35.060631580000006
9552.5	32.837556049999996
9552.75	35.800335819999994
9553.0	37.530011759999994
9553.25	43.20640227999999
9553.5	34.072184830000005
9553.75	43.94562024
9554.0	34.31501505
9554.25	36.29056686
9554.5	41.230911209999995
9554.75	48.141748240000005
9555.0	44.68843287
9555.25	47.64688493
9555.5	45.180431469999995
9555.75	45.429661110000005
9556.0	49.13665728
9556.25	50.117180680000004
9556.5	49.132632969999996
9556.75	54.064383740000004
9557.0	54.805978069999995
9557.25	49.133427010000005
9557.5	56.28916641
9557.75	62.70605525
9558.0	66.65977915
9558.25	60.981560589999994
9558.5	63.69980282
9558.75	64.93028761
9559.0	75.29822009
9559.25	69.37668258000001
9559.5	80.73623118000002
9559.75	71.84435558999999
9560.0	83.2040862
9560.25	86.16558806999998
9560.5	89.36833327999999
9560.75	83.20756143
9561.0	87.40119117
9561.25	89.36747824
9561.5	97.76881969
9561.75	103.68682222
9562.0	124.43749742
9562.25	112.34318110999999
9562.5	128.13760509
9562.75	134.05786219
9563.0	147.13995649999998
9563.25	158.25167390000001
9563.5	175.769862
9563.75	169.86588035000003
9564.0	183.9292859
9564.25	192.8246339
9564.5	217.9985454
9564.75	227.6323838
9565.0	213.2936586
9565.25	238.23070669999998
9565.5	247.142153
9565.75	261.4722199
9566.0	261.2302567
9566.25	293.0427213
9566.5	309.8256586
9566.75	327.6323246
9567.0	341.4714381
9567.25	367.60403990000003
9567.5	391.82619520000003
9567.75	433.3137119
9568.0	476.5250559
9568.25	501.93240970000005
9568.5	562.6789421999999
9568.75	636.2288909
9569.0	689.5313286
9569.25	789.3059870999999
9569.5	865.1314352999998
9569.75	937.4144470999998
9570.0	1047.6543211
9570.25	1059.1686948000001
9570.5	1148.5882993
9570.75	1204.1484160999998
9571.0	1227.8485481999999
9571.25	1303.0823331
9571.5	1332.044213
9571.75	1393.6156081
9572.0	1470.098851
9572.25	1469.136426
9572.5	1570.7960090000001
9572.75	1610.681515
9573.0	1626.877589
9573.25	1664.8032540000002
9573.5	1670.2615450000003
9573.75	1660.249403
9574.0	1614.741776
9574.25	1497.7861790000004
9574.5	1394.6682409999999
9574.75	1311.767765
9575.0	1185.3823734
9575.25	1084.4487963999998
9575.5	979.4860782000001
9575.75	913.0702348
9576.0	817.7949745000001
9576.25	764.3833873000001
9576.5	680.935061
9576.75	628.8640276
9577.0	611.0624237
9577.25	586.1367564
9577.5	549.1238062
9577.75	513.012552
9578.0	494.55182140000005
9578.25	467.87264849999997
9578.5	440.47598050000005
9578.75	381.69730999999996
9579.0	362.6635703
9579.25	346.66643029999994
9579.5	324.1648067
9579.75	299.70975330000005
9580.0	285.89094289999997
9580.25	275.5341677
9580.5	236.77245480000002
9580.75	228.87487009999998
9581.0	216.27801099999996
9581.25	202.95004499999996
9581.5	190.8519465
9581.75	172.08895239999998
9582.0	178.2574034
9582.25	158.00756399999997
9582.5	146.4070817
9582.75	146.39074373
9583.0	130.11687708000002
9583.25	122.70300702
9583.5	119.73151158
9583.75	112.08803931
9584.0	114.06736944999999
9584.25	104.68989923000001
9584.5	96.78415217000001
9584.75	94.55888474000001
9585.0	93.81381217999999
9585.25	86.16967006
9585.5	74.07182103000001
9585.75	79.50062795
9586.0	74.06023892
9586.25	70.11291220999999
9586.5	66.41743849000001
9586.75	61.228472769999996
9587.0	59.000582769999994
9587.25	54.310444329999996
9587.5	59.99762407
9587.75	55.79363208
9588.0	45.92098885
9588.25	53.82399101
9588.5	48.38841847
9588.75	43.699132930000005
9589.0	42.95802653
9589.25	44.930470050000004
9589.5	35.551899309999996
9589.75	45.17951709
9590.0	42.95936681
9590.25	44.69166424
9590.5	37.77558399
9590.75	37.28242680999999
9591.0	38.02079085999999
9591.25	34.317879360000006
9591.5	32.83688524
9591.75	35.307971910999996
9592.0	32.58808219
9592.25	26.910106239999998
9592.5	34.07236762
9592.75	33.08379934
9593.0	25.673222596
9593.25	24.933700631000004
9593.5	31.598295659999998
9593.75	28.638745049999997
9594.0	24.194422536999994
9594.25	30.61460281
9594.5	27.4010693
9594.75	26.169792347
9595.0	26.418290837
9595.25	22.96058639
9595.5	21.97183464
9595.75	20.737815399000002
9596.0	23.455937091
9596.25	18.269959461
9596.5	23.453133207
9596.75	25.427406169999998
9597.0	20.49407171
9597.25	20.985765472
9597.5	21.479592314
9597.75	22.961195356999998
9598.0	19.504588662
9598.25	24.444079712000004
9598.5	22.221795541
9598.75	19.010639484000002
9599.0	18.515592929
9599.25	19.504893026999998
9599.5	17.035696087
9599.75	16.541320369
9600.0	17.28193921
9600.25	12.344704017000002
9600.5	15.060570547000003
9600.75	18.763786395000004
9601.0	17.281208118
9601.25	17.034599545
9601.5	15.308093404000001
9601.75	18.764213143
9602.0	16.294711635
9602.25	16.541198929
9602.5	16.048407605999998
9602.75	12.343728563
9603.0	16.541198469999998
9603.25	20.737327866999998
9603.5	17.283097283
9603.75	14.318549799999998
9604.0	18.022923756
9604.25	14.567596646
9604.5	13.579942869
9604.75	12.837434159
9605.0	14.072001871
9605.25	14.074013439000002
9605.5	14.566194669000001
9605.75	17.777107298999997
9606.0	15.060996969
9606.25	14.567352660999997
9606.5	13.084896056000002
9606.75	16.046822953
9607.0	13.579576625
9607.25	12.590703178999998
9607.5	13.084774049
9607.75	13.085017864000001
9608.0	11.356806204
9608.25	13.826246447
9608.5	14.813291319000001
9608.75	15.059838885
9609.0	13.085078812
9609.25	12.592714847999998
9609.5	14.813656726000003
9609.75	15.062277725000001
9610.0	17.035026168
9610.25	15.060631567000001
9610.5	9.62963014
9610.75	15.060449106
9611.0	14.320012424
9611.25	13.084469297000002
9611.5	13.578784071000001
9611.75	16.293553473
9612.0	14.320743961
9612.25	14.320134742
9612.5	13.083981716999999
9612.75	11.851242333000002
9613.0	16.294955358
9613.25	14.073281906
9613.5	11.357720105999999
9613.75	14.073708597
9614.0	14.318488870999998
9614.25	14.073586574
9614.5	11.84959702
9614.75	11.850511094
9615.0	11.603841200999998
9615.25	11.110196891
9615.5	14.814022589000002
9615.75	12.343850831000001
9616.0	16.789331285
9616.25	11.356562192
9616.5	13.578723338
9616.75	12.589484363
9617.0	12.344338065999999
9617.25	11.356805772
9617.5	11.355952489999996
9617.75	15.801189144
9618.0	10.862491036
9618.25	11.109709229
9618.5	12.344094456999999
9618.75	9.381923916000002
9619.0	13.085993409999997
9619.25	11.109770297999999
9619.5	11.111294198000001
9619.75	12.837677625
9620.0	9.628288694
9620.25	15.307666828999999
9620.5	12.344765309
9620.75	11.355891416999999
9621.0	10.369090408
9621.25	13.578479760999997
9621.5	14.320134326
9621.75	13.825514792
9622.0	13.085749337
9622.25	14.319708029
9622.5	13.084713108
9622.75	11.603780189
9623.0	10.862490881
9623.25	11.604024239000001
9623.5	10.122725574999999
9623.75	14.813230162
9624.0	14.319524931
9624.25	11.604572708
9624.5	11.603963042
9624.75	10.368907527
9625.0	12.099009441
9625.25	12.097181083
9625.5	12.592349477
9625.75	10.122359662999997
9626.0	11.110745398999999
9626.25	11.603902089000002
9626.5	14.072123671000003
9626.75	14.565889831999998
9627.0	12.590947329
9627.25	10.122299039999998
9627.5	10.862917702999999
9627.75	12.098704741999999
9628.0	11.604450655
9628.25	13.085201018000001
9628.5	9.628349683
9628.75	13.824113375
9629.0	16.294041538000002
9629.25	10.863161376
9629.5	11.851181562999999
9629.75	8.393842724
9630.0	13.208301732
9630.25	11.710090244
9630.5	12.084573452
9630.75	12.783758753999999
9631.0	12.459224343999999
9631.25	10.936155642000001
9631.5	11.485375504
9631.75	12.284410410999998
9632.0	12.234466598
9632.25	12.109625149
9632.5	11.385560196999998
9632.75	12.459125853000003
9633.0	12.184486626
9633.25	11.310598958000002
9633.5	12.159537796999999
9633.75	12.034687597
9634.0	11.785025913
9634.25	12.459162646000001
9634.5	11.585195793
9634.75	11.335524119999999
9635.0	12.384113519999998
9635.25	11.210735015000001
9635.5	11.535290629000002
9635.75	11.785120667000001
9636.0	11.585201410000002
9636.25	11.884820022000001
9636.5	11.360588904999998
9636.75	12.009736898
9637.0	11.585208263
9637.25	12.08461645
9637.5	11.235759931000002
9637.75	11.959896579
9638.0	11.785045231000002
9638.25	12.609043318
9638.5	11.859945983000001
9638.75	12.484191276999999
9639.0	12.259424798
9639.25	11.785000965
9639.5	11.510367975000001
9639.75	12.683952185999999
9640.0	12.45912897
9640.25	12.184647468
9640.5	11.984826712
9640.75	11.934758840999999
9641.0	12.758778757000002
9641.25	11.834903648000001
9641.5	12.134684961
9641.75	12.184442988999999
9642.0	12.009750620000002
9642.25	12.159574575
9642.5	12.533995438000002
9642.75	12.384264374000002
9643.0	12.90865757
9643.25	11.510369234
9643.5	12.658904214
9643.75	12.109589612999999
9644.0	13.333059041
9644.25	13.058430407
9644.5	14.057028615999998
9644.75	12.708831823
9645.0	12.758834224000001
9645.25	14.107117035999998
9645.5	12.833782994
9645.75	13.757401885999998
9646.0	13.882344964
9646.25	13.757632549
9646.5	14.656473404000003
9646.75	14.656378664
9647.0	15.006032108
9647.25	13.90729381
9647.5	14.182017174
9647.75	14.107158814999998
9648.0	13.932197125000004
9648.25	13.582847294999999
9648.5	13.632749959
9648.75	13.333038461000001
9649.0	15.25564331
9649.25	14.955869478
9649.5	14.057054788
9649.75	13.907446520999997
9650.0	14.132009170000002
9650.25	14.53155467
9650.5	16.35425632
9650.75	16.603827
9651.0	15.779903101999999
9651.25	17.652705658
9651.5	18.00212158
9651.75	17.727504189999998
9652.0	17.428114979999997
9652.25	18.92586139
9652.5	17.92716597
9652.75	16.728853591
9653.0	18.002205749999995
9653.25	16.47908466
9653.5	18.27684806
9653.75	17.95217342
9654.0	17.57755304
9654.25	18.72624764
9654.5	18.35172702
9654.75	20.973436770000003
9655.0	23.045989029999998
9655.25	25.36776284
9655.5	29.81218548
9655.75	30.336756339999997
9656.0	32.23415925
9656.25	33.53251694
9656.5	38.05171192
9656.75	38.27642415
9657.0	39.05027144
9657.25	38.75082241999999
9657.5	40.39886224
9657.75	37.07785744
9658.0	33.93218154
9658.25	33.432502789999994
9658.5	30.236648640000002
9658.75	27.76490499
9659.0	26.715924089999994
9659.25	24.443726889999997
9659.5	24.468799179999998
9659.75	20.823521160000002
9660.0	19.350443670000004
9660.25	17.12824265
9660.5	15.854818820000002
9660.75	16.004634662
9661.0	15.630072911
9661.25	14.731180304
9661.5	12.758792464
9661.75	15.255694450000002
9662.0	14.206926128000001
9662.25	13.95714474
9662.5	12.384283697999999
9662.75	13.133253234000001
9663.0	13.457808842
9663.25	12.084592789000002
9663.5	14.107136374000003
9663.75	12.384228842999999
9664.0	13.033391175
9664.25	12.533983599
9664.5	12.758811778000002
9664.75	12.334326800000001
9665.0	13.033439184
9665.25	13.133308089999998
9665.5	12.259477161999998
9665.75	11.760092027999999
9666.0	12.334342997
9666.25	11.585324835999998
9666.5	12.509132007000002
9666.75	12.109611430000003
9667.0	11.934919071
9667.25	12.583926166000001
9667.5	12.733885394
9667.75	12.633924207000002
9668.0	12.384280579999999
9668.25	11.934853594999998
9668.5	11.610289265
9668.75	12.159522829
9669.0	11.210714464999999
9669.25	11.335584576999999
9669.5	11.535369188
9669.75	11.959851698
9670.0	10.461771728999999
9670.25	11.660281707000001
9670.5	10.761380982999999
9670.75	10.361802435
9671.0	11.360650000000001
9671.25	10.911084634000002
9671.5	10.836249328
9671.75	10.536598296000001
9672.0	11.235683862999998
9672.25	10.386885307
9672.5	10.636342540000001
9672.75	10.411781161
9673.0	10.711364857
9673.25	10.411750612999999
9673.5	10.261987754000002
9673.75	11.085990824000001
9674.0	10.311975205
9674.25	10.486636403999999
9674.5	10.411797377000001
9674.75	11.035946647000001
9675.0	10.411797982
9675.25	11.110966483999999
9675.5	10.611519625
9675.75	11.710153194999998
9676.0	10.137087072
9676.25	9.837424825
9676.5	9.912380442
9676.75	11.310646339
9677.0	9.687697497
9677.25	10.536729213
9677.5	10.012323548
9677.75	10.037266785
9678.0	10.311870471
9678.25	10.411765569
9678.5	10.861214998999998
9678.75	10.012284898
9679.0	10.137160012999999
9679.25	9.687771686
9679.5	9.812599422
9679.75	10.336904083999999
9680.0	9.562909662000001
9680.25	9.662761129
9680.5	9.687663211
9680.75	8.838736853
9681.0	8.763882848000002
9681.25	8.289478978
9681.5	8.888696874
9681.75	9.063478398
9682.0	7.740203648
9682.25	8.788891542
9682.5	9.038581301
9682.75	8.414369681
9683.0	7.939935257999999
9683.25	7.640290466
9683.5	8.763867267
9683.75	8.439259919000001
9684.0	8.763886593000002
9684.25	8.913686858
9684.5	8.589120655
9684.75	9.288209344000002
9685.0	8.189557067
9685.25	8.514178132
9685.5	8.139604526000001
9685.75	9.113498267999999
9686.0	8.439269272
9686.25	8.863766113999999
9686.5	8.813778038
9686.75	8.813864694000001
9687.0	8.938662504999998
9687.25	7.590376577000002
9687.5	8.214585704000001
9687.75	8.639037038999998
9688.0	8.389297406
9688.25	8.489226173
9688.5	7.889949055
9688.75	8.539141932
9689.0	7.9399302700000005
9689.25	7.889945937999999
9689.5	9.138362319
9689.75	8.464236814
9690.0	7.89002823
9690.25	7.74019243
9690.5	8.114670648999999
9690.75	7.939963935
9691.0	8.139684322999999
9691.25	8.514261044
9691.5	8.639124937
9691.75	8.139668739
9692.0	8.089771057999998
9692.25	8.189561431
9692.5	8.089791008
9692.75	8.114665039
9693.0	8.139698037999999
9693.25	8.064756763
9693.5	7.640323505
9693.75	7.740179959000001
9694.0	7.7901574369999995
9694.25	7.715176883
9694.5	7.989870342000001
9694.75	8.114680624
9695.0	8.838716904999998
9695.25	7.815015259999999
9695.5	7.715180624
9695.75	8.314436547
9696.0	8.613999051000002
9696.25	7.265784190000001
9696.5	7.190842911000001
9696.75	7.890027602999998
9697.0	8.039669526
9697.25	7.4905288510000005
9697.5	8.713871714
9697.75	8.76382924
9698.0	8.289472124
9698.25	7.215803597000001
9698.5	8.688886091
9698.75	7.964928984999999
9699.0	7.565366641000001
9699.25	7.390630005
9699.5	8.838744959
9699.75	7.565366644000001
9700.0	8.339371672
