Energy_(eV)	Live_Counts
9550.0	41.97689417
9550.25	37.036915809999996
9550.5	33.58177146999999
9550.75	39.51086841
9551.0	37.52921853
9551.25	36.29513823
9551.5	45.9219641
9551.75	40.24837715
9552.0	47.407896310000005
9552.25	44.19119303
9552.5	42.47218563
9552.75	44.934370730000005
9553.0	49.13275487
9553.25	43.211584040000005
9553.5	44.193995699999995
9553.75	52.8392635
9554.0	48.14766135000001
9554.25	51.85075667
9554.5	43.70370372000001
9554.75	52.847741039999995
9555.0	49.876543219999995
9555.25	51.35796465999999
9555.5	61.23176413
9555.75	61.23206899
9556.0	59.50355186000001
9556.25	57.777112130000006
9556.5	58.02469147
9556.75	56.54784445999999
9557.0	65.43185627
9557.25	68.39164980999999
9557.5	67.40740895
9557.75	73.33333337
9558.0	73.58347899
9558.25	73.57823810000001
9558.5	84.20881250000001
9558.75	91.6000011
9559.0	85.67901239999999
9559.25	86.91650750000001
9559.5	93.8311243
9559.75	96.0406058
9560.0	100.75324379999999
9560.25	100.98906059999999
9560.5	107.42143329999999
9560.75	120.7209948
9561.0	123.2213438
9561.25	135.8024691
9561.5	132.6081429
9561.75	137.0389908
9562.0	154.8207909
9562.25	165.19909179999996
9562.5	177.27048029999997
9562.75	190.3554373
9563.0	197.29536190000002
9563.25	205.20347959999998
9563.5	218.50102990000002
9563.75	220.7412937
9564.0	254.57870010000002
9564.25	254.12718889999996
9564.5	266.17283960000003
9564.75	281.7623673
9565.0	302.2200945
9565.25	303.20976040000005
9565.5	341.3306574
9565.75	332.8673747
9566.0	364.1829025
9566.25	394.3209877
9566.5	393.56477400000006
9566.75	434.03707670000006
9567.0	468.6214957
9567.25	489.9396696
9567.5	520.0234983
9567.75	571.1584439999999
9568.0	658.5185200000001
9568.25	714.4066799999999
9568.5	754.382516
9568.75	853.1251769999999
9569.0	952.3397239999999
9569.25	1079.012345
9569.5	1163.946008
9569.75	1231.014089
9570.0	1380.966372
9570.25	1444.4384069999999
9570.5	1502.7172679999999
9570.75	1579.8315079999998
9571.0	1670.430024
9571.25	1721.97032
9571.5	1782.936193
9571.75	1848.0319539999998
9572.0	1992.4330490000002
9572.25	2007.5715289999998
9572.5	2069.23866
9572.75	2165.80919
9573.0	2173.917092
9573.25	2241.4747420000003
9573.5	2201.927377
9573.75	2178.562607
9574.0	2050.38281
9574.25	1948.5532289999999
9574.5	1809.435708
9574.75	1673.650653
9575.0	1510.6194799999998
9575.25	1373.8066709999998
9575.5	1255.32251
9575.75	1142.611528
9576.0	1078.114417
9576.25	978.924289
9576.5	897.534297
9576.75	828.419324
9577.0	765.0332350000001
9577.25	753.15033
9577.5	700.5251250000001
9577.75	648.696005
9578.0	623.4556453
9578.25	591.8265082
9578.5	548.193884
9578.75	490.14309269999995
9579.0	496.11159420000007
9579.25	445.21957869999994
9579.5	418.0744522
9579.75	374.8295113
9580.0	367.3778459
9580.25	314.5541872
9580.5	311.3341318
9580.75	283.9510497
9581.0	278.4963322
9581.25	259.54020619999994
9581.5	252.8295765
9581.75	223.21079549999996
9582.0	219.76205539999998
9582.25	204.1882053
9582.5	202.45280089999997
9582.75	164.9440107
9583.0	167.16049370000002
9583.25	159.2524936
9583.5	148.90151489999997
9583.75	147.15982599999998
9584.0	148.64837839999998
9584.25	119.5106245
9584.5	114.81396369999999
9584.75	117.5258662
9585.0	103.4530111
9585.25	102.2221636
9585.5	102.4690161
9585.75	91.60493819999999
9586.0	94.5723549
9586.25	90.8629191
9586.5	79.7433952
9586.75	83.21067070000001
9587.0	73.3331519
9587.25	66.91358026
9587.5	60.73940207
9587.75	65.4306374
9588.0	60.25179207
9588.25	61.231825060000006
9588.5	62.22764959999999
9588.75	58.26880114000001
9589.0	53.57616569
9589.25	48.88498801
9589.5	45.675720989999995
9589.75	45.42972251999999
9590.0	45.433989200000006
9590.25	39.75619648
9590.5	48.88651180000001
9590.75	40.24478096
9591.0	35.80100632
9591.25	41.972200130000004
9591.5	30.858590860000003
9591.75	40.24587742
9592.0	32.83920263
9592.25	40.74068106
9592.5	37.53269451999999
9592.75	32.09602264
9593.0	32.34647263
9593.25	32.59362998
9593.5	29.38021704
9593.75	26.666666649999996
9594.0	24.93906435
9594.25	29.383021799999998
9594.5	30.36884716
9594.75	28.88888888
9595.0	26.420790770000004
9595.25	26.17223053
9595.5	24.443286360000002
9595.75	30.370431979999996
9596.0	22.46773393
9596.25	25.67614764
9596.5	22.46639298
9596.75	22.71415989
9597.0	21.23377552
9597.25	21.23383647
9597.5	18.51815416
9597.75	21.72906638
9598.0	22.46730726
9598.25	17.03654941
9598.5	19.754976829999997
9598.75	16.05084662
9599.0	22.47090426
9599.25	17.777107299999997
9599.5	19.00722624
9599.75	17.775766376
9600.0	17.28431673
9600.25	15.30772769
9600.5	15.554885080000002
9600.75	19.998537149999997
9601.0	18.518518500000003
9601.25	17.03746389
9601.5	19.258771630000002
9601.75	17.28431682
9602.0	18.273495349999997
9602.25	16.296296279999996
9602.5	13.330834591000002
9602.75	15.801432959999998
9603.0	16.29745493
9603.25	16.29556487
9603.5	16.543209859999997
9603.75	15.06227721
9604.0	16.29824787
9604.25	12.09730331
9604.5	12.346472120000001
9604.75	15.803200900999999
9605.0	15.80246912
9605.25	17.530864180000002
9605.5	13.57896711
9605.75	10.617588851
9606.0	15.80381071
9606.25	12.345801140000003
9606.5	10.863039450999999
9606.75	10.864137411
9607.0	12.099070331000002
9607.25	11.606096911
9607.5	10.370248670999999
9607.75	12.344825691
9608.0	13.08635958
9608.25	10.122420600000002
9608.5	16.29836965
9608.75	11.111416011000001
9609.0	12.839506161
9609.25	11.357354847
9609.5	15.062582120000002
9609.75	15.308459380999999
9610.0	12.59259276
9610.25	12.097424499999999
9610.5	14.56796254
9610.75	11.851851841999999
9611.0	11.359061428
9611.25	12.590946899999999
9611.5	12.84054284
9611.75	13.578845021000001
9612.0	12.592898011
9612.25	12.59240994
9612.5	10.865234390000001
9612.75	12.83871422
9613.0	9.629020106
9613.25	12.592471021
9613.5	10.37055352
9613.75	7.40850507
9614.0	11.85154754
9614.25	11.357964001
9614.5	12.34549633
9614.75	12.83950616
9615.0	11.35698912
9615.25	11.11080634
9615.5	12.345191516
9615.75	12.592592581000002
9616.0	11.11111128
9616.25	7.6542600290000005
9616.5	12.591373560000001
9616.75	14.07334265
9617.0	8.642646158
9617.25	9.876299396
9617.5	11.60457255
9617.75	9.135253901
9618.0	10.865234201
9618.25	8.888096606000001
9618.5	8.394452210999999
9618.75	7.654991781
9619.0	11.35784198
9619.25	10.863649380000002
9619.5	8.642341192
9619.75	10.863222541
9620.0	11.11080653
9620.25	7.901356647
9620.5	10.3696999
9620.75	7.902149730000001
9621.0	8.889254772
9621.25	9.630483360000001
9621.5	7.653406712
9621.75	8.641365787
9622.0	10.12229871
9622.25	11.60347567
9622.5	10.864136911
9622.75	9.876238440999998
9623.0	14.813413590000001
9623.25	10.61710139
9623.5	8.642036489
9623.75	12.09876542
9624.0	10.37000489
9624.25	9.136839151999999
9624.5	7.654443090999999
9624.75	10.86480751
9625.0	7.900869157000001
9625.25	7.901234562000001
9625.5	9.8775189
9625.75	10.369943701
9626.0	11.85252264
9626.25	11.850937571
9626.5	7.90092998
9626.75	7.408139181999999
9627.0	8.148270312000001
9627.25	9.383691745
9627.5	8.394513491
9627.75	9.38228938
9628.0	7.407468597
9628.25	8.395000921
9628.5	7.4072855849999995
9628.75	7.901051827000001
9629.0	8.888462222
9629.25	8.888218630999999
9629.5	7.901295666
9629.75	12.097851149999999
9630.0	10.13723483
9630.25	10.661538239999999
9630.5	9.8624254
9630.75	9.68780971
9631.0	9.862626780000001
9631.25	10.112249210000002
9631.5	9.96242711
9631.75	9.66277047
9632.0	9.21336345
9632.25	9.16338722
9632.5	8.83894944
9632.75	9.38811131
9633.0	9.51294028
9633.25	9.23833223
9633.5	9.73774293
9633.75	9.088561259999999
9634.0	8.68899519
9634.25	9.26322746
9634.5	9.98738031
9634.75	10.037374629999999
9635.0	10.03724932
9635.25	9.587887170000002
9635.5	9.163482609999999
9635.75	9.98722822
9636.0	8.36435917
9636.25	9.53783926
9636.5	8.68895903
9636.75	9.887436600000001
9637.0	9.58794454
9637.25	8.61408571
9637.5	9.76262818
9637.75	9.33817997
9638.0	10.13723857
9638.25	9.038520199999999
9638.5	10.38689779
9638.75	9.48789981
9639.0	9.53799698
9639.25	10.63644291
9639.5	9.53807368
9639.75	10.162083299999999
9640.0	9.23829793
9640.25	10.162135039999999
9640.5	10.212149290000001
9640.75	11.48550329
9641.0	11.086018260000001
9641.25	9.512915979999999
9641.5	9.26338395
9641.75	8.96368491
9642.0	10.63653267
9642.25	9.93745335
9642.5	10.56158328
9642.75	10.23707568
9643.0	9.91249452
9643.25	10.53674917
9643.5	11.41050029
9643.75	10.711397269999999
9644.0	11.51036487
9644.25	10.91117127
9644.5	10.76145517
9644.75	12.434249960000002
9645.0	10.6865139
9645.25	11.48550578
9645.5	11.61028926
9645.75	11.1111105
9646.0	12.584110080000002
9646.25	12.58400471
9646.5	13.08364481
9646.75	12.384461379999998
9647.0	12.40931545
9647.25	12.50915694
9647.5	13.308023540000002
9647.75	13.23330544
9648.0	12.783820480000001
9648.25	12.63399903
9648.5	13.033544540000001
9648.75	13.30804473
9649.0	12.88377667
9649.25	13.483041329999999
9649.5	13.607724439999998
9649.75	13.48298709
9650.0	14.80625
9650.25	15.630461910000001
9650.5	15.60549313
9650.75	16.85365392
9651.0	16.529126360000003
9651.25	16.32939102
9651.5	17.47807377
9651.75	19.2256527
9652.0	18.72636857
9652.25	18.45162087
9652.5	19.225727520000003
9652.75	19.57553246
9653.0	18.60152088
9653.25	19.79983698
9653.5	19.27573804
9653.75	18.67626953
9654.0	19.600260600000002
9654.25	20.94837946
9654.5	21.722665029999998
9654.75	22.34687728
9655.0	25.217827930000002
9655.25	26.915682500000003
9655.5	29.01326465
9655.75	30.037200690000002
9656.0	34.80618453
9656.25	36.12895929
9656.5	39.97465094
9656.75	41.14837851
9657.0	40.948287799999996
9657.25	38.351233289999996
9657.5	42.0722393
9657.75	38.8514357
9658.0	35.20555426
9658.25	34.10692815
9658.5	32.508954939999995
9658.75	29.2629332
9659.0	27.41515554
9659.25	24.26925895
9659.5	22.99605768
9659.75	20.9486438
9660.0	18.25180261
9660.25	16.82874496
9660.5	15.90490228
9660.75	14.456807909999998
9661.0	14.33184612
9661.25	13.50806187
9661.5	11.76010574
9661.75	11.310765420000001
9662.0	11.78502901
9662.25	11.56034982
9662.5	11.71006966
9662.75	10.361867879999998
9663.0	12.134573979999999
9663.25	9.98739528
9663.5	10.33695147
9663.75	9.73766438
9664.0	10.83628237
9664.25	10.33691844
9664.5	10.312015109999999
9664.75	9.88768597
9665.0	9.687757350000002
9665.25	9.038475949999999
9665.5	9.56293522
9665.75	10.012352850000001
9666.0	8.91366568
9666.25	8.18962253
9666.5	8.2896049
9666.75	8.81379488
9667.0	8.48932468
9667.25	7.6902878900000005
9667.5	8.4143036
9667.75	7.4156979199999995
9668.0	8.16471796
9668.25	7.340703028
9668.5	7.93993714
9668.75	7.865013309999999
9669.0	7.140970177999999
9669.25	6.741429036
9669.5	6.741446486
9669.75	6.566768440000001
9670.0	6.8413989310000005
9670.25	6.416847227999999
9670.5	6.192171774
9670.75	6.142194293
9671.0	6.0173784050000005
9671.25	6.217125597
9671.5	6.541656274000001
9671.75	6.266979635
9672.0	6.16724849
9672.25	6.1672354039999995
9672.5	6.142188685999999
9672.75	6.816392119999999
9673.0	6.017408323
9673.25	5.543022532
9673.5	6.616646176
9673.75	5.94252379
9674.0	6.466832813999999
9674.25	6.741490122
9674.5	6.2670918539999985
9674.75	6.217091316
9675.0	6.4168989719999985
9675.25	6.741382278000001
9675.5	6.941186207
9675.75	6.516796567
9676.0	6.9163221440000004
9676.25	6.666576898000001
9676.5	6.3918447800000004
9676.75	6.516797828000001
9677.0	6.841304804
9677.25	6.017473168
9677.5	7.440527060000001
9677.75	6.391927697
9678.0	6.716522579
9678.25	6.916249817999999
9678.5	6.292007022
9678.75	6.541746663
9679.0	6.39196012
9679.25	6.2420407639999995
9679.5	6.291998921
9679.75	6.466841538000001
9680.0	5.567946439
9680.25	5.218394613
9680.5	6.292008274
9680.75	6.242100613
9681.0	5.567930229
9681.25	6.192105058
9681.5	5.518013225000001
9681.75	5.642831613
9682.0	5.2434026760000005
9682.25	5.168431474
9682.5	5.742708014
9682.75	5.093526353
9683.0	5.418136822
9683.25	5.043611843
9683.5	5.143461437000001
9683.75	4.294518872
9684.0	5.692838384
9684.25	4.743997598
9684.5	5.243314774
9684.75	5.243445690000001
9685.0	4.893803472
9685.25	5.068520782999999
9685.5	4.394470083
9685.75	5.068558190999999
9686.0	5.493122369
9686.25	4.893799109
9686.5	5.19344702
9686.75	5.193468839
9687.0	4.868862118
9687.25	5.318259788000001
9687.5	4.4693434089999995
9687.75	4.818876533999999
9688.0	4.694051288000001
9688.25	4.494291629
9688.5	4.644213462
9688.75	5.51801571
9689.0	4.719082426
9689.25	4.544182449
9689.5	4.344579887
9689.75	4.519263534
9690.0	5.168471373
9690.25	5.692812825
9690.5	4.569173055
9690.75	4.519292832
9691.0	4.9437628700000005
9691.25	4.019928896
9691.5	5.24338959
9691.75	4.544227957
9692.0	5.343256636
9692.25	4.868875827
9692.5	4.244636154
9692.75	5.068637363999999
9693.0	3.895106149
9693.25	4.444350932999999
9693.5	4.544274089
9693.75	4.369466383
9694.0	5.468137983999999
9694.25	4.519237971
9694.5	4.51925044
9694.75	4.619168611000001
9695.0	4.768991323
9695.25	4.744015054
9695.5	4.818893987000001
9695.75	4.494287261
9696.0	4.344513802000001
9696.25	5.243306045
9696.5	5.143504452
9696.75	5.09359306
9697.0	4.269583124
9697.25	4.569250362
9697.5	4.31954626
9697.75	3.870129256
9698.0	4.9437441710000005
9698.25	4.294559392
9698.5	4.469322214
9698.75	4.3195475100000005
9699.0	4.744008816
9699.25	4.2196866900000005
9699.5	4.943751025
9699.75	4.469357748999999
9700.0	4.3195861639999995
