Energy_(eV)	Live_Counts
9550.0	6.590526067000001
9550.25	6.3587465225
9550.5	6.284902457
9550.75	6.367253017500001
9551.0	6.425297072499999
9551.25	6.929307485999999
9551.5	6.515942227500001
9551.75	6.458525904
9552.0	6.392154426500001
9552.25	6.392365064500001
9552.5	6.781113362499999
9552.75	6.929857185
9553.0	6.623691997500001
9553.25	6.9958279575
9553.5	6.706848068000001
9553.75	6.334435886500001
9554.0	6.987928617
9554.25	6.467143207500001
9554.5	7.1204006935
9554.75	6.698394911000001
9555.0	6.871967688
9555.25	6.8391040955
9555.5	6.533167207
9555.75	7.020815510000001
9556.0	7.2028811895
9556.25	7.450887600500001
9556.5	6.9214519375
9556.75	7.294039180500002
9557.0	7.021076765999998
9557.25	7.558272138499999
9557.5	7.078895108999999
9557.75	6.946588543
9558.0	7.376649558999999
9558.25	7.574595869000002
9558.5	7.393011667000001
9558.75	7.426425169
9559.0	7.640897695
9559.25	7.541901858000001
9559.5	7.765493643000002
9559.75	8.178581186
9560.0	8.153742611000002
9560.25	7.872623805500001
9560.5	8.186691116499999
9560.75	7.566833350000001
9561.0	7.872480223999998
9561.25	8.104422623
9561.5	8.2368249045
9561.75	8.2449539685
9562.0	8.583530133999998
9562.25	8.294439499000001
9562.5	8.5425840025
9562.75	8.3604129945
9563.0	8.393831905499999
9563.25	8.5917549175
9563.5	8.749203669999998
9563.75	8.9639032645
9564.0	9.485573604499999
9564.25	9.601185673
9564.5	9.617250981000002
9564.75	10.2206809425
9565.0	10.0310702055
9565.25	10.5845360725
9565.5	10.592421730999998
9565.75	10.287500907
9566.0	10.5593966665
9566.25	11.122242873499998
9566.5	11.809295441
9566.75	12.229668381000002
9567.0	12.486138754499999
9567.25	13.1558581
9567.5	13.817436155
9567.75	13.627613344999997
9568.0	14.487359385
9568.25	14.8433971
9568.5	15.487661250000002
9568.75	16.529634415
9569.0	16.521536515
9569.25	17.42220426
9569.5	18.382354385
9569.75	20.060200249999998
9570.0	20.28320224
9570.25	21.07827383
9570.5	21.696653289999997
9570.75	23.177799689999997
9571.0	23.516844855
9571.25	24.2694468
9571.5	24.633735409999996
9571.75	27.486240655
9572.0	27.601830865
9572.25	29.180508409999998
9572.5	31.54664503
9572.75	31.636915745000003
9573.0	34.26671944499999
9573.25	36.44124229500001
9573.5	38.814208805
9573.75	42.751356314999995
9574.0	46.19951081999999
9574.25	49.688996474999996
9574.5	55.094796274999986
9574.75	60.49044464499999
9575.0	65.54539890500001
9575.25	73.42336413499999
9575.5	77.10571038500002
9575.75	87.22180603500001
9576.0	91.39602744
9576.25	97.61902259000001
9576.5	104.88548773
9576.75	111.08803500000002
9577.0	114.73466165000002
9577.25	117.80814684999999
9577.5	121.42056740000001
9577.75	126.76863864999999
9578.0	131.03938315000002
9578.25	135.27273635
9578.5	140.0963392
9578.75	146.12339559999998
9579.0	148.91875234999998
9579.25	156.26265085000003
9579.5	156.24636719999998
9579.75	154.3830478
9580.0	153.06323085000002
9580.25	147.43959354999998
9580.5	141.4536496
9580.75	131.636537
9581.0	122.03642025000002
9581.25	112.8432259
9581.5	101.57124
9581.75	95.82527030499998
9582.0	86.503717655
9582.25	80.07666156
9582.5	73.70832109000001
9582.75	68.48010853500003
9583.0	61.40181866
9583.25	58.083831800000006
9583.5	53.816606815000014
9583.75	51.895666930000004
9584.0	47.95356816499999
9584.25	45.50816974000001
9584.5	43.120795990000005
9584.75	41.640083950000005
9585.0	38.450022115
9585.25	36.416167630000004
9585.5	34.60782563
9585.75	31.541447424999994
9586.0	29.664138445
9586.25	28.300295595
9586.5	26.158680845000003
9586.75	24.67914816
9587.0	22.763213475000004
9587.25	21.440055225
9587.5	20.952789310000004
9587.75	19.91076195
9588.0	18.943641030000002
9588.25	17.27394479
9588.5	17.126523425000006
9588.75	16.125771894999996
9589.0	15.315824354999998
9589.25	14.432689835000001
9589.5	14.721415755
9589.75	14.48963637
9590.0	12.506609450000001
9590.25	12.737649645000003
9590.5	11.77911402
9590.75	11.27363332
9591.0	10.935339484500002
9591.25	9.9438826695
9591.5	10.084360849499998
9591.75	9.7039686335
9592.0	9.282789940499999
9592.25	8.877531937999999
9592.5	8.190925664999998
9592.75	7.9267129595
9593.0	7.5216599465
9593.25	7.364703492999999
9593.5	7.050278102000002
9593.75	7.381138121000001
9594.0	6.736298289499999
9594.25	6.661818307500002
9594.5	6.587831791499999
9594.75	6.3069342015
9595.0	6.827328939
9595.25	6.753069004000001
9595.5	5.794377677
9595.75	5.843898857999999
9596.0	5.959360865500001
9596.25	5.7280446959999995
9596.5	5.612206996000001
9596.75	5.232021199499998
9597.0	5.182714498
9597.25	5.438721535499999
9597.5	5.2816462125
9597.75	5.008989977
9598.0	4.653582544
9598.25	4.8931824095
9598.5	4.8515826645
9598.75	4.504823609
9599.0	4.504706092
9599.25	4.521153108999998
9599.5	4.306337149
9599.75	4.7197624755
9600.0	4.6367585165
9600.25	4.116210798
9600.5	4.256813187500001
9600.75	4.265018902
9601.0	4.058457898
9601.25	3.8270255989999997
9601.5	4.033518325499999
9601.75	4.124453385
9602.0	3.785649997
9602.25	3.6449328085000006
9602.5	3.719515183499999
9602.75	3.678121864
9603.0	3.9095172574999992
9603.25	3.8022021495
9603.5	3.6780589659999996
9603.75	3.562575111
9604.0	3.62013941
9604.25	3.661614737
9604.5	3.4880022779999997
9604.75	3.446833008499999
9605.0	3.3310895335000006
9605.25	3.678117753
9605.5	3.636747560500001
9605.75	3.5125388180000003
9606.0	3.3805615379999994
9606.25	3.3309078135
9606.5	3.3062346805
9606.75	2.9922793449999996
9607.0	3.3641022740000004
9607.25	3.1657360490000004
9607.5	3.41377102
9607.75	3.256641045500001
9608.0	2.9589632895000006
9608.25	3.4055120504999996
9608.5	3.0664942
9608.75	3.1821447385
9609.0	3.0416516029999996
9609.25	2.9342094820000004
9609.5	3.0582256170000006
9609.75	3.041692598
9610.0	2.975650684
9610.25	2.9507028684999996
9610.5	3.3309569965000003
9610.75	2.8515115779999993
9611.0	2.760644843
9611.25	2.9425108719999997
9611.5	3.091339487
9611.75	3.2317164735000006
9612.0	2.909521300999999
9612.25	2.8929349804999998
9612.5	3.041710335
9612.75	3.1408811610000003
9613.0	3.0415587165
9613.25	2.8349607814999995
9613.5	2.9424179565
9613.75	2.9424616529999996
9614.0	3.1077099220000006
9614.25	2.942524509500001
9614.5	2.7855133734999997
9614.75	2.6366806544999997
9615.0	2.8267755745000005
9615.25	2.9587747269999993
9615.5	2.719311588000001
9615.75	2.8928311505
9616.0	2.9260406645
9616.25	2.6035790489
9616.5	2.8928380095000006
9616.75	3.0085759685
9617.0	2.7607104310000006
9617.25	2.9755509245000007
9617.5	2.868084207999999
9617.75	2.7854382295000004
9618.0	2.6200943239999996
9618.25	2.7441951744999997
9618.5	2.9425613764999996
9618.75	2.8349990635
9619.0	2.8184510145
9619.25	2.8101455315
9619.5	2.6780753575
9619.75	2.7358200325
9620.0	2.7769524624999997
9620.25	2.5373444944999997
9620.5	2.4878998235
9620.75	2.8515197515
9621.0	2.7523803705
9621.25	2.8678669865
9621.5	2.6944649190000005
9621.75	2.6449587630000004
9622.0	2.6614098020000005
9622.25	2.7028386935
9622.5	2.7523967660000004
9622.75	2.5209713249999997
9623.0	2.5620654700000007
9623.25	2.4299215159999994
9623.5	2.6118476194999998
9623.75	2.6613620189999994
9624.0	2.958981025999999
9624.25	3.0415860075000003
9624.5	2.6201353330000003
9624.75	2.4134308379999996
9625.0	2.4878738604999997
9625.25	2.942482141
9625.5	2.5705649245
9625.75	2.5704337765
9626.0	2.8183649299999995
9626.25	2.405081671
9626.5	2.793598856
9626.75	2.6201079725
9627.0	2.5455898305
9627.25	2.6530141839999994
9627.5	2.8432307545
9627.75	2.4051841297000003
9628.0	2.31425318525
9628.25	2.5622116465
9628.5	2.644925957499999
9628.75	2.6613510385
9629.0	2.3473274289000003
9629.25	2.52916475
9629.5	2.7193348369999994
9629.75	2.7027129920000004
9630.0	2.5631363265
9630.25	2.6355771949999998
9630.5	2.5747866779999997
9630.75	2.5306598665
9631.0	2.5256540725000005
9631.25	2.5889464724999995
9631.5	2.4923535555000003
9631.75	2.4273869170000006
9632.0	2.5314933375
9632.25	2.6064369065
9632.5	2.4615336904999996
9632.75	2.5031636815000002
9633.0	2.6172447035
9633.25	2.4648635965
9633.5	2.525660812000001
9633.75	2.542315584
9634.0	2.5872923165
9634.25	2.6080876099999997
9634.5	2.5106635375
9634.75	2.5281353194999996
9635.0	2.5364769004999994
9635.25	2.497340182
9635.5	2.5647968495000004
9635.75	2.4956745304999997
9636.0	2.5115040555
9636.25	2.5181615099999997
9636.5	2.5714454414999994
9636.75	2.5106502094999996
9637.0	2.5073297775000003
9637.25	2.5389719074999997
9637.5	2.5556174005
9637.75	2.4898370270000005
9638.0	2.5064924779999997
9638.25	2.4948323204999996
9638.5	2.528142934
9638.75	2.5914308814999996
9639.0	2.5739265795
9639.25	2.6039150245
9639.5	2.6313885215
9639.75	2.5481217330000008
9640.0	2.568944888
9640.25	2.6114152845
9640.5	2.5681104315
9640.75	2.4914985589999996
9641.0	2.5098122739999993
9641.25	2.5606159150000005
9641.5	2.5531198145
9641.75	2.5006538355
9642.0	2.4331911645
9642.25	2.4090384215000005
9642.5	2.510646438
9642.75	2.559764538
9643.0	2.4864759565000005
9643.25	2.4398615025
9643.5	2.562263788
9643.75	2.512316738
9644.0	2.5780909134999996
9644.25	2.5447782764999998
9644.5	2.5730896415
9644.75	2.5555877089999997
9645.0	2.479822664
9645.25	2.4465230895000003
9645.5	2.548110928
9645.75	2.426536595
9646.0	2.4948084120000003
9646.25	2.5289579600000005
9646.5	2.6213761564999998
9646.75	2.4523518845000005
9647.0	2.519797858
9647.25	2.4898138515
9647.5	2.538953282
9647.75	2.4639999349999995
9648.0	2.4689919705
9648.25	2.4207065235000007
9648.5	2.4265268870000005
9648.75	2.4373413255
9649.0	2.4290195490000004
9649.25	2.4531610175000003
9649.5	2.392374994
9649.75	2.5156319144999992
9650.0	2.4573337430000004
9650.25	2.4548304705
9650.5	2.4365123200000003
9650.75	2.5747344105000005
9651.0	2.501471677
9651.25	2.4589828105
9651.5	2.4215192625000004
9651.75	2.5014639245000003
9652.0	2.5330979575000003
9652.25	2.4207030430000005
9652.5	2.4539976665
9652.75	2.4881237895000003
9653.0	2.6022171010000004
9653.25	2.505620369
9653.5	2.4473396565
9653.75	2.5131319435
9654.0	2.538926834
9654.25	2.5447579045
9654.5	2.5955467205000002
9654.75	2.481476002
9655.0	2.4523292385
9655.25	2.4698143195
9655.5	2.5281018974999996
9655.75	2.5447359384999997
9656.0	2.572241719
9656.25	2.6155293455
9656.5	2.5480839415
9656.75	2.5972118880000004
9657.0	2.6113772705000002
9657.25	2.696306260499999
9657.5	2.7171124835
9657.75	2.6388501164999996
9658.0	2.822866597499999
9658.25	2.879491809
9658.5	2.9219626214999996
9658.75	3.018545762
9659.0	2.9669413215000007
9659.25	3.1284705765000003
9659.5	3.229233791
9659.75	3.2800180579999996
9660.0	3.3457929705
9660.25	3.4515813110000004
9660.5	3.5048481045
9660.75	3.570644053
9661.0	3.717190971
9661.25	3.788798380499999
9661.5	3.7871440704999992
9661.75	3.856230223
9662.0	3.902050841
9662.25	3.9461917714999997
9662.5	3.9595306305000006
9662.75	3.939541985499999
9663.0	3.9270318835000007
9663.25	3.8929002934999994
9663.5	3.8512686955
9663.75	3.7746313750000007
9664.0	3.8345864635
9664.25	3.7038705550000004
9664.5	3.7038588235
9664.75	3.5756226114999996
9665.0	3.5489847765
9665.25	3.5148373085
9665.5	3.317482036500001
9665.75	3.2417103894999997
9666.0	3.175102962
9666.25	3.2616940409999997
9666.5	3.2142293900000007
9666.75	2.9460943265
9667.0	2.9560913535
9667.25	2.810357356
9667.5	2.7454061945
9667.75	2.7678975145000004
9668.0	2.802035442
9668.25	2.7129296074999996
9668.5	2.7537375399999995
9668.75	2.7162625655000006
9669.0	2.715436929
9669.25	2.6604619365000004
9669.5	2.6996136730000004
9669.75	2.5788714090000004
9670.0	2.5988607754999995
9670.25	2.5272455019999995
9670.5	2.6005139345
9670.75	2.6080087154999996
9671.0	2.5588843175
9671.25	2.6563059794999995
9671.5	2.5880308864999995
9671.75	2.573883631
9672.0	2.5738770430000004
9672.25	2.6146714675
9672.5	2.5472164379999995
9672.75	2.5588840685000003
9673.0	2.6130136630000007
9673.25	2.6154969655
9673.5	2.6096745209999996
9673.75	2.5788539790000007
9674.0	2.5813707845
9674.25	2.5772021655
9674.5	2.5380493184999997
9674.75	2.515568455
9675.0	2.4747652249999996
9675.25	2.4822697279999995
9675.5	2.4539583085000003
9675.75	2.3798360195
9676.0	2.378180794
9676.25	2.3781813075
9676.5	2.3523555750000003
9676.75	2.2357839564999997
9677.0	2.2749208540000003
9677.25	2.2999171235
9677.5	2.2582748185
9677.75	2.2282898815
9678.0	2.1916568384999993
9678.25	2.1225419785
9678.5	2.109210666
9678.75	2.1799957535000005
9679.0	2.125036279
9679.25	2.0892316715000003
9679.5	2.1092186529999997
9679.75	2.063419266
9680.0	2.23974732
9680.25	2.182029956
9680.5	2.1240011477
9680.75	2.2479981375
9681.0	2.0497862504999995
9681.25	2.4630189534999998
9681.5	1.95876651755
9681.75	2.1405423595
9682.0	2.10758559135
9682.25	2.0910634825
9682.5	2.1158473179999997
9682.75	2.2564825379999998
9683.0	2.2316126428499996
9683.25	2.2314309489
9683.5	2.02499969225
9683.75	2.14885191335
9684.0	2.5125046424999993
9684.25	2.07456190425
9684.5	2.1406106589999996
9684.75	2.0910184043499997
9685.0	2.0081989184999993
9685.25	2.13236940285
9685.5	2.1902602618500002
9685.75	1.9256635773500004
9686.0	2.2975411961
9686.25	2.1902206490000005
9686.5	2.2728366158499997
9686.75	2.1735182265
9687.0	2.0084065687999995
9687.25	2.0746247335000003
9687.5	2.2149826179999996
9687.75	2.23148693985
9688.0	1.8596530738499997
9688.25	2.091064858
9688.5	2.0828304486999993
9688.75	2.264602182
9689.0	2.115844587
9689.25	2.124103585
9689.5	2.0414357250000004
9689.75	2.1488313924999995
9690.0	2.0000792696
9690.25	2.01656175955
9690.5	1.9174278123499995
9690.75	2.14059425955
9691.0	2.1571627980000003
9691.25	1.9586640557500001
9691.5	2.1571422949999994
9691.75	2.223185633
9692.0	2.18187968495
9692.25	2.057915459
9692.5	2.1819520865
9692.75	1.9257127568499997
9693.0	2.0413769784999998
9693.25	2.2893259108999997
9693.5	2.1075896884999996
9693.75	2.1488969780000002
9694.0	2.1159265540000005
9694.25	2.1488259100000002
9694.5	2.3223837729
9694.75	2.1241336325499995
9695.0	2.0001735235500004
9695.25	2.1240147809999996
9695.5	2.264464206
9695.75	1.8843016389999998
9696.0	1.9091209964
9696.25	1.91745238705
9696.5	2.0991490144
9696.75	1.9587022975
9697.0	2.2562871895
9697.25	1.9339949829999998
9697.5	2.04136878405
9697.75	2.041435731
9698.0	1.9917328310500004
9698.25	2.074438928
9698.5	2.0083082055
9698.75	1.9504350969999997
9699.0	2.107524119
9699.25	2.4050407
9699.5	2.1652974730500008
9699.75	2.2645325255
9700.0	2.0413551234
