Energy_(eV)	Live_Counts
9550.0	6.641676811000001
9550.25	7.1352784929999995
9550.5	7.061131208000001
9550.75	7.135284591
9551.0	6.863716102000001
9551.25	7.6534373979999994
9551.5	7.777277978000001
9551.75	7.580076373
9552.0	8.147441243
9552.25	7.752391930000002
9552.5	7.7275905069999995
9552.75	7.999744005000001
9553.0	7.826447446
9553.25	7.974790729
9553.5	7.9497153890000005
9553.75	8.764572792
9554.0	8.815132027
9554.25	8.419527778
9554.5	9.134620221999999
9554.75	8.074220632000001
9555.0	9.481012253
9555.25	9.407011581
9555.5	9.456954896
9555.75	8.592007460999998
9556.0	9.431812389
9556.25	9.382308016
9556.5	9.530132792
9556.75	9.505941926999999
9557.0	10.863155527
9557.25	9.529523498
9557.5	10.667142453
9557.75	11.999658669999999
9558.0	10.247163747
9558.25	11.159896774999998
9558.5	13.23297098
9558.75	13.727414240000002
9559.0	12.024478324
9559.25	13.25899124
9559.5	14.51750079
9559.75	12.961463720000001
9560.0	13.160696139999999
9560.25	13.801519099999998
9560.5	15.135418479999998
9560.75	15.33257159
9561.0	15.58092401
9561.25	16.421094849999996
9561.5	17.55334933
9561.75	17.08584719
9562.0	19.186075789999997
9562.25	20.12078129
9562.5	19.802019089999998
9562.75	19.210304110000003
9563.0	20.86532568
9563.25	24.171109610000006
9563.5	23.528006159999997
9563.75	25.531590800000004
9564.0	26.91381867
9564.25	28.737888950000002
9564.5	29.95158111
9564.75	32.24775553
9565.0	33.45848541
9565.25	35.060980050000005
9565.5	37.01083537999999
9565.75	40.00111645
9566.0	40.24845084
9566.25	43.411719850000004
9566.5	46.36823273
9566.75	49.6025746
9567.0	51.52550105
9567.25	55.73128557
9567.5	56.71040674999999
9567.75	56.54362096999999
9568.0	63.89646896000001
9568.25	64.05260254
9568.5	65.36287964
9568.75	71.84585793000001
9569.0	74.91360829
9569.25	81.06771066
9569.5	85.04128235
9569.75	92.07605330999999
9570.0	98.81957867
9570.25	107.854945
9570.5	109.90933290000001
9570.75	128.0521376
9571.0	141.93260460000002
9571.25	153.86301280000004
9571.5	173.67156490000002
9571.75	188.53260520000003
9572.0	204.889311
9572.25	227.3370584
9572.5	250.0429674
9572.75	264.7867694
9573.0	285.27643780000005
9573.25	301.70761369999997
9573.5	313.88928519999996
9573.75	325.2669406
9574.0	337.3170391
9574.25	350.48812139999995
9574.5	363.7690159
9574.75	374.45130329999995
9575.0	391.65227259999995
9575.25	399.7622554
9575.5	418.60219029999996
9575.75	426.4786287
9576.0	439.07936200000006
9576.25	441.8720391999999
9576.5	426.2458297
9576.75	417.7177761
9577.0	393.3875662
9577.25	364.731523
9577.5	338.96399759999997
9577.75	304.3090757
9578.0	281.3261007
9578.25	254.43326670000002
9578.5	230.974683
9578.75	211.4375407
9579.0	191.84703510000003
9579.25	180.5320035
9579.5	163.3621877
9579.75	155.34883000000002
9580.0	145.6440517
9580.25	137.02618850000002
9580.5	133.31454730000002
9580.75	128.3305772
9581.0	118.5100581
9581.25	108.59272239999999
9581.5	103.18087962000001
9581.75	94.76513072000002
9582.0	91.2097785
9582.25	83.82295485
9582.5	79.08030921000001
9582.75	72.59094774
9583.0	66.17118243
9583.25	63.77947461
9583.5	59.654091570000006
9583.75	53.677483710000004
9584.0	53.85193370999999
9584.25	49.207396440000004
9584.5	46.865638289999985
9584.75	44.93595598
9585.0	40.27085016
9585.25	36.735328270000004
9585.5	36.17168269
9585.75	35.23574036000001
9586.0	32.7654569
9586.25	31.851456770000006
9586.5	30.222271380000002
9586.75	28.32160391
9587.0	24.32102482
9587.25	24.91270957
9587.5	22.76134414
9587.75	22.00221362
9588.0	21.258711440000003
9588.25	20.02370394
9588.5	19.62869761
9588.75	19.20774376
9589.0	16.91286126
9589.25	16.098436720000002
9589.5	16.22125328
9589.75	14.640379110000003
9590.0	15.08598738
9590.25	14.715592449999999
9590.5	13.456729480000002
9590.75	13.159073850000002
9591.0	12.099271573
9591.25	11.751953032
9591.5	11.432404063
9591.75	10.443414484000002
9592.0	11.431782245
9592.25	10.247206437
9592.5	9.431593085
9592.75	9.085859354
9593.0	9.825588291999999
9593.25	8.739040316999999
9593.5	8.469343142
9593.75	8.271678285
9594.0	8.320786516999998
9594.25	7.678000684
9594.5	7.753208602000001
9594.75	7.628879931
9595.0	7.185380771
9595.25	7.357354641000001
9595.5	6.543508685999998
9595.75	5.777991293
9596.0	7.185161087999999
9596.25	6.221856677
9596.5	6.3210121909999994
9596.75	5.8520104029999995
9597.0	6.246133706
9597.25	5.6786527929999995
9597.5	5.432135448999999
9597.75	5.185234124999999
9598.0	5.333327305999999
9598.25	4.888443945
9598.5	4.616686779
9598.75	5.259680148999999
9599.0	4.888846345
9599.25	4.8148331660000006
9599.5	4.469123666
9599.75	4.5181772680000005
9600.0	4.666246302999999
9600.25	4.048980567
9600.5	4.271446534
9600.75	3.9998721610000003
9601.0	4.0494315389999995
9601.25	3.654186892
9601.5	3.6048956270000003
9601.75	4.666800913
9602.0	3.53025477
9602.25	3.901563865999999
9602.5	3.8267460899999994
9602.75	3.7037098530000003
9603.0	3.555567893
9603.25	3.333327321
9603.5	3.9010031130000002
9603.75	3.1357476829999995
9604.0	3.481353586
9604.25	3.4564732
9604.5	3.357384949
9604.75	3.333077514
9605.0	2.8887121830000004
9605.25	2.9133608630000003
9605.5	2.9876482639999997
9605.75	3.4813536119999995
9606.0	3.382386974
9606.25	3.2835605290000003
9606.5	3.184801233
9606.75	3.209821782
9607.0	2.9876544899999997
9607.25	2.7159946759999998
9607.5	2.617320634
9607.75	2.8641976540000003
9608.0	3.086401523
9608.25	2.938417958
9608.5	3.2840055489999997
9608.75	2.4195459116999998
9609.0	2.7406920160000006
9609.25	2.9628228180000002
9609.5	2.543429407
9609.75	2.790038141
9610.0	2.8392989369999997
9610.25	2.7159031760000003
9610.5	2.740539623
9610.75	2.740716425
9611.0	2.542966069
9611.25	2.5431368
9611.5	2.7903003190000004
9611.75	3.0370676019999996
9612.0	2.4198567520000003
9612.25	2.3455998521
9612.5	2.592635321
9612.75	2.7404786490000004
9613.0	2.4443592020000002
9613.25	2.567852536
9613.5	2.2219784729999996
9613.75	2.4934188219999998
9614.0	2.2961135080000004
9614.25	2.5183783619999995
9614.5	2.197415055
9614.75	2.222307646
9615.0	2.4938394396
9615.25	2.51831134
9615.5	2.5676636010000005
9615.75	2.642036348
9616.0	2.0244963131
9616.25	2.7898492089999998
9616.5	1.901210228
9616.75	1.9998781147000002
9617.0	2.46909926
9617.25	2.0739460959
9617.5	1.9753696214999998
9617.75	2.2960525565
9618.0	2.074122893
9618.25	1.6294833541000002
9618.5	2.3948788730999997
9618.75	2.0246548879999997
9619.0	2.1728334461
9619.25	2.123322798
9619.5	1.6050419569999999
9619.75	2.0246182510000006
9620.0	2.0243623586000004
9620.25	2.0986679266
9620.5	1.9506295336000001
9620.75	2.2715257601000003
9621.0	2.0986740216
9621.25	2.2219236570999996
9621.5	1.728523122
9621.75	1.9752355510000001
9622.0	1.9012162925999998
9622.25	1.8025667646999999
9622.5	1.8270874442
9622.75	1.9258101261
9623.0	1.9259137425
9623.25	1.9751745631
9623.5	2.2466089179999997
9623.75	2.098649677
9624.0	2.1480812127
9624.25	2.0736535616
9624.5	2.4441885321
9624.75	2.3947996989999996
9625.0	2.4691419320000003
9625.25	1.8764396307000002
9625.5	1.6295016299
9625.75	2.123145971
9626.0	2.4691419599999995
9626.25	1.9999025496000005
9626.5	1.9504588213000003
9626.75	1.6789392420999998
9627.0	2.0491572519999997
9627.25	2.2961927779999995
9627.5	1.925846703
9627.75	2.049346201
9628.0	1.7035330394
9628.25	2.073927823
9628.5	2.394885038
9628.75	2.1479898560999997
9629.0	1.456619526
9629.25	1.6542234877000002
9629.5	2.098808163
9629.75	1.6295199486
9630.0	2.032427194
9630.25	1.967506286
9630.5	2.012463073
9630.75	2.107325582
9631.0	1.9749812119999999
9631.25	2.0049526749999997
9631.5	2.109846027
9631.75	1.8926193699999998
9632.0	1.887606847
9632.25	2.039904241
9632.5	1.9824926110000003
9632.75	1.9899887939999998
9633.0	2.0124360809999997
9633.25	1.9525088670000001
9633.5	1.885124931
9633.75	2.0174485399999997
9634.0	1.940041054
9634.25	1.994956555
9634.5	1.8701305019999999
9634.75	1.935041875
9635.0	1.9949722679999997
9635.25	2.019950342
9635.5	2.012464383
9635.75	2.0274359320000004
9636.0	1.795192219
9636.25	1.9650044180000001
9636.5	1.7902441539999998
9636.75	1.9475387350000002
9637.0	2.014965314
9637.25	1.927579975
9637.5	1.9450472190000003
9637.75	1.857659824
9638.0	2.037418834
9638.25	1.9300683140000001
9638.5	2.107328076
9638.75	2.0249458490000003
9639.0	2.022435567
9639.25	1.9300479289999999
9639.5	1.8651505240000001
9639.75	1.992465538
9640.0	1.977497356
9640.25	1.952536485
9640.5	1.895104903
9640.75	2.1747466120000007
9641.0	1.9724758560000002
9641.25	2.024933193
9641.5	1.9350532179999997
9641.75	2.069867037
9642.0	1.9974541180000003
9642.25	2.004962339
9642.5	2.0024415810000002
9642.75	1.9575232589999998
9643.0	2.087334094
9643.25	1.950024145
9643.5	2.134805775
9643.75	1.997475815
9644.0	2.0798741909999996
9644.25	2.067373525
9644.5	1.9949719549999994
9644.75	2.029947897
9645.0	2.1372813959999997
9645.25	2.074854749
9645.5	2.197202128
9645.75	1.972523048
9646.0	2.0798879699999993
9646.25	1.9849831299999998
9646.5	2.0324235809999998
9646.75	1.997468835
9647.0	2.144771844
9647.25	2.057391433
9647.5	2.172214697
9647.75	2.3145765060000003
9648.0	2.1922218960000004
9648.25	2.187221407
9648.5	2.292100669
9648.75	2.162259538
9649.0	2.3669939440000003
9649.25	2.2721245770000005
9649.5	2.202221756
9649.75	2.4019624030000006
9650.0	2.4419054850000004
9650.25	2.5143197099999997
9650.5	2.554268836
9650.75	2.5942258200000006
9651.0	2.4968474190000003
9651.25	2.6765995709999997
9651.5	2.5916948399999997
9651.75	2.561778738
9652.0	2.5292946880000002
9652.25	2.511822644
9652.5	2.327074366
9652.75	2.5343078969999997
9653.0	2.3844598130000003
9653.25	2.4393829860000005
9653.5	2.564248935
9653.75	2.576728156
9654.0	2.6741358559999995
9654.25	2.798948696
9654.5	3.0161854489999995
9654.75	3.0386551780000004
9655.0	3.066136246
9655.25	3.136025661
9655.5	3.2009509369999996
9655.75	3.545495787
9656.0	3.408198804
9656.25	3.4656146740000002
9656.5	3.388204821
9656.75	3.49309119
9657.0	3.285810467
9657.25	3.3806813920000005
9657.5	3.360733107
9657.75	3.2134197430000007
9658.0	3.6279109309999997
9658.25	3.545488804
9658.5	3.7902169139999997
9658.75	4.034853753
9659.0	4.27708679
9659.25	4.938786194
9659.5	5.158475004999999
9659.75	5.730248802
9660.0	6.4468186979999995
9660.25	6.866293917999999
9660.5	7.577952097000001
9660.75	8.119767898000001
9661.0	8.29450603
9661.25	8.237124507999999
9661.5	8.436788292000001
9661.75	8.029884558
9662.0	7.9125305
9662.25	7.305695914999999
9662.5	6.406881788
9662.75	6.0098816600000005
9663.0	5.363295882000001
9663.25	4.976238941
9663.5	4.474361045
9663.75	4.102258761
9664.0	3.6803166490000003
9664.25	3.438115965
9664.5	3.153502195
9664.75	2.903825962
9665.0	2.8888526669999997
9665.25	2.758998009
9665.5	2.75398773
9665.75	2.4419058590000002
9666.0	2.446874557
9666.25	2.3744866389999997
9666.5	2.3570188329999997
9666.75	2.214682146
9667.0	2.292077413
9667.25	2.177239874
9667.5	2.1323079010000003
9667.75	2.16226496
9668.0	2.174733895
9668.25	2.089855597
9668.5	2.109847337
9668.75	2.1997024940000003
9669.0	2.014941935
9669.25	2.102319293
9669.5	2.089828044
9669.75	1.992473081
9670.0	1.9824667989999996
9670.25	2.1073235860000006
9670.5	2.157261663
9670.75	2.1248187599999997
9671.0	2.0773868479999997
9671.25	2.0049538609999997
9671.5	1.967502985
9671.75	2.077364969
9672.0	2.029921027
9672.25	1.897602468
9672.5	2.0349255079999997
9672.75	1.907562802
9673.0	1.8077133920000001
9673.25	1.807715451
9673.5	1.692862139
9673.75	1.607969627
9674.0	1.657925472
9674.25	1.597970643
9674.5	1.563012277
9674.75	1.6079573459999998
9675.0	1.500606265
9675.25	1.4456714380000002
9675.5	1.345800771
9675.75	1.375745799
9676.0	1.383238931
9676.25	1.4131903810000002
9676.5	1.345801268
9676.75	1.450661393
9677.0	1.395726816
9677.25	1.518079367
9677.5	1.445656975
9677.75	1.4831167660000002
9678.0	1.4931151310000002
9678.25	1.4356778129999999
9678.5	1.470642659
9678.75	1.4581524650000002
9679.0	1.47065151
9679.25	1.665385436
9679.5	1.440684788
9679.75	1.4781284319999999
9680.0	1.6789758182
9680.25	1.4814815043
9680.5	1.5555555783
9680.75	1.6542539709000004
9681.0	1.5308459347999999
9681.25	1.2345069845999999
9681.5	1.3825758689
9681.75	1.4072672453000001
9682.0	1.3825088598
9682.25	1.6544490467
9682.5	1.8270264906999998
9682.75	1.2099131461
9683.0	1.3580003188
9683.25	1.9503491958000005
9683.5	1.45669871
9683.75	1.5307788917
9684.0	1.6543088591999997
9684.25	1.6295077556
9684.5	1.1853132487
9684.75	1.3332723931000001
9685.0	1.6047676402
9685.25	1.3581161626999998
9685.5	1.1357293511999997
9685.75	1.6788661639999998
9686.0	1.0615821176
9686.25	1.1850694188
9686.5	1.2591983069999997
9686.75	1.3330956514
9687.0	1.3085322946000002
9687.25	1.2097363627000002
9687.5	1.1604694912
9687.75	1.3578723122999998
9688.0	1.0616613714
9688.25	1.2345679359
9688.5	1.2345862725
9688.75	1.0616796517
9689.0	1.4565585533
9689.25	1.0615150985000001
9689.5	1.1110379798999999
9689.75	1.0615882056000001
9690.0	1.2345252795000001
9690.25	1.2839506736000001
9690.5	1.1357232491
9690.75	1.3334065457999997
9691.0	1.0616491576
9691.25	1.0370126795
9691.5	0.8147112096999999
9691.75	1.0122359838
9692.0	1.3579637541
9692.25	1.2590520440999997
9692.5	0.9875446141999997
9692.75	1.0123152087
9693.0	0.9382289595000002
9693.25	1.4320561374000003
9693.5	0.9380522340999999
9693.75	1.2590886122
9694.0	1.3085200835
9694.25	1.03699437
9694.5	0.9875324231
9694.75	1.2591191125
9695.0	0.9134827238
9695.25	1.2346349799999998
9695.5	1.0863222301
9695.75	1.1356379476999998
9696.0	1.1357963884
9696.25	0.6418899980000001
9696.5	0.9380461173999997
9696.75	1.061734583
9697.0	0.7899832834
9697.25	1.2591373557
9697.5	0.9381497019000001
9697.75	1.2097851637
9698.0	0.9876421456
9698.25	0.8641426886
9698.5	1.2098948548
9698.75	0.8888706186
9699.0	1.0123944759
9699.25	1.0865600099
9699.5	1.1851669381000003
9699.75	1.0616308717999998
9700.0	1.0370248616000002
