Energy_(eV)	Live_Counts
9550.0	7.40740741
9550.25	6.17283951
9550.5	7.90318597
9550.75	7.40740741
9551.0	6.66502098
9551.25	7.40740741
9551.5	8.88888889
9551.75	6.17436404
9552.0	7.65621141
9552.25	9.13354727
9552.5	8.14814815
9552.75	6.17283951
9553.0	8.3971351
9553.25	10.1234568
9553.5	7.16049383
9553.75	8.89108422
9554.0	4.93705258
9554.25	8.15016053
9554.5	10.8641975
9554.75	9.62725253
9555.0	8.64197531
9555.25	7.40923685
9555.5	10.617284
9555.75	10.3703704
9556.0	9.38503334
9556.25	7.65432099
9556.5	9.38271605
9556.75	11.3552209
9557.0	13.3333333
9557.25	10.1234568
9557.5	11.6049383
9557.75	11.8518519
9558.0	12.8363367
9558.25	11.6020736
9558.5	13.3333333
9558.75	7.16049383
9559.0	15.0654483
9559.25	17.5308642
9559.5	12.0987654
9559.75	14.8148148
9560.0	12.5863771
9560.25	14.3245246
9560.5	13.5802469
9560.75	16.7901235
9561.0	20.4988886
9561.25	18.0246914
9561.5	20.9876543
9561.75	20.7356208
9562.0	20.2419156
9562.25	28.3950617
9562.5	25.6853544
9562.75	29.8765432
9563.0	31.6049383
9563.25	29.1429983
9563.5	31.3580247
9563.75	33.3333333
9564.0	32.3536676
9564.25	37.7777778
9564.5	41.7387009
9564.75	41.9753086
9565.0	43.7144974
9565.25	48.3950617
9565.5	42.4586522
9565.75	56.7901235
9566.0	46.1728395
9566.25	52.0987654
9566.5	58.7654321
9566.75	62.4845641
9567.0	62.4691358
9567.25	71.3756483
9567.5	72.345679
9567.75	76.524315
9568.0	92.345679
9568.25	91.8518519
9568.5	106.419753
9568.75	111.358025
9569.0	134.601136
9569.25	133.333333
9569.5	161.975309
9569.75	162.469136
9570.0	192.345679
9570.25	211.904174
9570.5	221.289207
9570.75	229.876543
9571.0	239.871542
9571.25	254.383798
9571.5	268.641975
9571.75	276.11756
9572.0	299.827118
9572.25	282.222222
9572.5	315.971365
9572.75	314.645592
9573.0	304.841897
9573.25	356.384292
9573.5	358.518519
9573.75	351.691776
9574.0	346.258335
9574.25	348.975056
9574.5	329.62963
9574.75	318.35021
9575.0	300.0
9575.25	280.563102
9575.5	261.052112
9575.75	226.722648
9576.0	203.950617
9576.25	185.971845
9576.5	174.074074
9576.75	162.469136
9577.0	149.703557
9577.25	141.728395
9577.5	128.888889
9577.75	119.506173
9578.0	106.91358
9578.25	100.246914
9578.5	93.6033589
9578.75	87.1604938
9579.0	93.1094097
9579.25	86.9565217
9579.5	78.290936
9579.75	77.7777778
9580.0	68.1481481
9580.25	60.7407407
9580.5	59.0123457
9580.75	54.5679012
9581.0	50.1234568
9581.25	50.617284
9581.5	45.914589
9581.75	49.6296296
9582.0	38.5185185
9582.25	41.5019763
9582.5	34.3209877
9582.75	35.0617284
9583.0	33.8355149
9583.25	28.3950617
9583.5	32.3536676
9583.75	29.382716
9584.0	23.4567901
9584.25	22.4691358
9584.5	19.7530864
9584.75	20.2469136
9585.0	16.7901235
9585.25	15.5555556
9585.5	15.0617284
9585.75	17.2839506
9586.0	17.7777778
9586.25	17.279684
9586.5	12.8395062
9586.75	15.0542942
9587.0	15.8024691
9587.25	10.3678104
9587.5	12.5925926
9587.75	11.8518519
9588.0	11.1111111
9588.25	8.88669464
9588.5	13.5768946
9588.75	9.62962963
9589.0	12.0987654
9589.25	10.1234568
9589.5	10.617284
9589.75	8.89108422
9590.0	5.92738948
9590.25	8.88450148
9590.5	5.9244631
9590.75	9.13580247
9591.0	8.88669464
9591.25	5.18518519
9591.5	5.92592593
9591.75	5.92592593
9592.0	7.90123457
9592.25	4.19649469
9592.5	4.9382716
9592.75	5.92592593
9593.0	5.43075784
9593.25	5.92592593
9593.5	5.67761047
9593.75	6.17283951
9594.0	4.19856755
9594.25	4.9382716
9594.5	2.4691358
9594.75	4.9382716
9595.0	6.41816835
9595.25	2.4691358
9595.5	3.45679012
9595.75	3.70461842
9596.0	4.44444444
9596.25	2.71537892
9596.5	2.4691358
9596.75	2.96369474
9597.0	3.7037037
9597.25	3.20908418
9597.5	2.96296296
9597.75	3.95061728
9598.0	3.20987654
9598.25	3.7037037
9598.5	3.45679012
9598.75	4.44554211
9599.0	1.2345679
9599.25	1.97530864
9599.5	4.19753086
9599.75	3.95159299
9600.0	4.44444444
9600.25	2.96369474
9600.5	2.96296296
9600.75	3.20987654
9601.0	3.94964206
9601.25	2.4691358
9601.5	2.71604938
9601.75	2.46852629
9602.0	3.20908418
9602.25	2.22222222
9602.5	2.4691358
9602.75	3.20987654
9603.0	1.72839506
9603.25	2.4691358
9603.5	3.20987654
9603.75	2.4691358
9604.0	1.97482103
9604.25	1.2345679
9604.5	2.22222222
9604.75	3.20908418
9605.0	2.22222222
9605.25	1.23426314
9605.5	2.22222222
9605.75	2.96296296
9606.0	1.97530864
9606.25	1.97530864
9606.5	2.71604938
9606.75	3.45679012
9607.0	2.22222222
9607.25	2.71604938
9607.5	3.20987654
9607.75	2.4691358
9608.0	3.45508391
9608.25	2.22222222
9608.5	2.22167366
9608.75	2.96442688
9609.0	1.97482103
9609.25	3.7037037
9609.5	3.7037037
9609.75	2.22277105
9610.0	2.4691358
9610.25	1.2345679
9610.5	1.2345679
9610.75	1.48148148
9611.0	1.72882193
9611.25	2.71604938
9611.5	0.987166831
9611.75	1.2345679
9612.0	1.48111577
9612.25	2.71604938
9612.5	1.2345679
9612.75	0.740557887
9613.0	3.20987654
9613.25	2.71672018
9613.5	1.97482103
9613.75	2.46852629
9614.0	2.22222222
9614.25	2.22222222
9614.5	1.72839506
9614.75	1.48148148
9615.0	2.96223155
9615.25	1.97530864
9615.5	2.71604938
9615.75	3.45679012
9616.0	2.96296296
9616.25	1.23487281
9616.5	1.23487281
9616.75	1.7279684
9617.0	0.493705258
9617.25	2.22222222
9617.5	2.71672018
9617.75	0.987654321
9618.0	1.48184737
9618.25	1.72839506
9618.5	0.493705258
9618.75	1.72839506
9619.0	0.740740741
9619.25	1.48148148
9619.5	3.70461842
9619.75	3.20987654
9620.0	0.740740741
9620.25	2.22222222
9620.5	1.48148148
9620.75	1.2345679
9621.0	1.72882193
9621.25	1.48148148
9621.5	0.987410516
9621.75	1.48148148
9622.0	2.96296296
9622.25	0.987654321
9622.5	1.23487281
9622.75	2.71604938
9623.0	1.2345679
9623.25	0.740740741
9623.5	1.48148148
9623.75	1.72839506
9624.0	1.2345679
9624.25	0.987898246
9624.5	0.740740741
9624.75	1.72924901
9625.0	1.48148148
9625.25	0.740557887
9625.5	2.4691358
9625.75	0.987898246
9626.0	1.72839506
9626.25	1.48148148
9626.5	1.7279684
9626.75	1.97482103
9627.0	3.45764386
9627.25	1.72839506
9627.5	1.2345679
9627.75	2.71672018
9628.0	0.740740741
9628.25	1.7279684
9628.5	2.96369474
9628.75	2.46852629
9629.0	1.97482103
9629.25	1.23426314
9629.5	1.48111577
9629.75	1.72839506
9630.0	1.92254875
9630.25	1.29840945
9630.5	1.5980025
9630.75	1.94756554
9631.0	1.67290886
9631.25	1.54806492
9631.5	1.39825218
9631.75	1.5979626
9632.0	1.44818976
9632.25	1.34834827
9632.5	1.84759812
9632.75	1.69787765
9633.0	1.5979626
9633.25	1.82267609
9633.5	1.64789893
9633.75	1.47312177
9634.0	1.49808994
9634.25	1.19850187
9634.5	1.24843945
9634.75	1.72276041
9635.0	1.72284644
9635.25	1.47308499
9635.5	1.64794007
9635.75	1.79766304
9636.0	1.79775281
9636.25	1.62289024
9636.5	1.52313416
9636.75	1.72284644
9637.0	1.97253433
9637.25	1.67286709
9637.5	1.5230581
9637.75	1.82267609
9638.0	1.82267609
9638.25	1.64789893
9638.5	2.02237092
9638.75	1.69792005
9639.0	1.87265918
9639.25	1.87265918
9639.5	1.4481536
9639.75	1.84764425
9640.0	1.67290886
9640.25	1.37321482
9640.5	2.09732591
9640.75	1.47315855
9641.0	1.72284644
9641.25	1.84764425
9641.5	1.69787765
9641.75	1.57295516
9642.0	1.42322097
9642.25	1.54798762
9642.5	1.37321482
9642.75	1.82263058
9643.0	1.89758058
9643.25	1.97248508
9643.5	1.74777159
9643.75	1.92254875
9644.0	1.72280343
9644.25	1.3732834
9644.5	1.82267609
9644.75	1.79770792
9645.0	1.67286709
9645.25	1.8227216
9645.5	1.57299443
9645.75	1.5230581
9646.0	1.97243583
9646.25	1.62293076
9646.5	1.69783526
9646.75	2.07240949
9647.0	1.89758058
9647.25	2.14726224
9647.5	1.97253433
9647.75	2.22222222
9648.0	1.94756554
9648.25	2.02247191
9648.5	2.52184769
9648.75	1.79770792
9649.0	1.97253433
9649.25	2.54681648
9649.5	2.29701388
9649.75	2.54681648
9650.0	2.39700375
9650.25	2.34694897
9650.5	2.64662555
9650.75	2.52184769
9651.0	2.67166042
9651.25	2.82147316
9651.5	2.42191206
9651.75	2.82140271
9652.0	3.09612984
9652.25	3.49563046
9652.5	3.44569288
9652.75	3.04626832
9653.0	3.24578049
9653.25	3.37078652
9653.5	3.29579786
9653.75	2.9463171
9654.0	3.1710362
9654.25	2.97121171
9654.5	2.97136008
9654.75	2.7965742
9655.0	2.92134831
9655.25	3.5955954
9655.5	3.44560685
9655.75	3.89503383
9656.0	4.19475655
9656.25	4.69389793
9656.5	5.24331477
9656.75	5.31835206
9657.0	6.69146838
9657.25	6.19210507
9657.5	6.51669122
9657.75	7.21579986
9658.0	6.99108636
9658.25	5.74282147
9658.5	6.39185039
9658.75	6.1423221
9659.0	5.94257179
9659.25	5.64266454
9659.5	5.34332085
9659.75	4.46941323
9660.0	4.19454709
9660.25	3.47066167
9660.5	3.09605253
9660.75	3.07108437
9661.0	2.59675406
9661.25	2.07240949
9661.5	2.04738958
9661.75	2.52178472
9662.0	2.02247191
9662.25	2.52178472
9662.5	1.89753321
9662.75	2.27210307
9663.0	2.0474407
9663.25	1.84764425
9663.5	1.72284644
9663.75	1.77278402
9664.0	1.79770792
9664.25	1.64794007
9664.5	1.82263058
9664.75	1.99750312
9665.0	2.09732591
9665.25	1.82267609
9665.5	1.87256566
9665.75	1.57299443
9666.0	1.77278402
9666.25	1.54806492
9666.5	1.32334582
9666.75	1.57303371
9667.0	1.64789893
9667.25	1.37324911
9667.5	1.69787765
9667.75	1.72280343
9668.0	1.42322097
9668.25	1.17353308
9668.5	1.37321482
9668.75	1.22344011
9669.0	1.22350121
9669.25	1.42322097
9669.5	1.24840828
9669.75	1.79770792
9670.0	1.54806492
9670.25	1.37331769
9670.5	0.898876404
9670.75	1.52309613
9671.0	1.22344011
9671.25	1.12356745
9671.5	1.34828094
9671.75	1.04863677
9672.0	0.998751561
9672.25	0.998751561
9672.5	1.17353308
9672.75	1.27340824
9673.0	1.09859929
9673.25	1.42325651
9673.5	1.14856429
9673.75	1.14850694
9674.0	0.973782772
9674.25	0.798981299
9674.5	1.34831461
9674.75	0.749044968
9675.0	1.32331278
9675.25	1.04868914
9675.5	1.32334582
9675.75	1.22347066
9676.0	1.09862672
9676.25	1.04868914
9676.5	1.34828094
9676.75	1.14856429
9677.0	1.29837703
9677.25	1.02372035
9677.5	1.07365793
9677.75	0.74906367
9678.0	0.973758458
9678.25	1.02374591
9678.5	1.14850694
9678.75	1.37324911
9679.0	1.17350378
9679.25	1.39825218
9679.5	1.17353308
9679.75	0.923845194
9680.0	0.799001248
9680.25	0.774032459
9680.5	1.14853562
9680.75	0.873907615
9681.0	1.17347448
9681.25	0.948790292
9681.5	0.873842159
9681.75	1.12359551
9682.0	0.799001248
9682.25	0.948790292
9682.5	1.04866295
9682.75	1.27344004
9683.0	1.07360431
9683.25	0.823928892
9683.5	0.998726624
9683.75	0.774013133
9684.0	0.873885796
9684.25	0.998726624
9684.5	1.04868914
9684.75	1.32337886
9685.0	0.873885796
9685.25	1.09857186
9685.5	0.699108636
9685.75	0.923822127
9686.0	0.923822127
9686.25	1.02369479
9686.5	0.898853961
9686.75	0.774013133
9687.0	0.79896135
9687.25	0.973758458
9687.5	0.84891763
9687.75	0.798981299
9688.0	0.898876404
9688.25	1.09859929
9688.5	0.898831519
9688.75	0.724094881
9689.0	0.973782772
9689.25	0.84891763
9689.5	0.798981299
9689.75	0.74906367
9690.0	0.774032459
9690.25	0.948813983
9690.5	0.823949464
9690.75	0.724076802
9691.0	0.923822127
9691.25	0.848938826
9691.5	0.848896435
9691.75	0.948813983
9692.0	0.774013133
9692.25	0.948813983
9692.5	0.873885796
9692.75	0.599235974
9693.0	1.14853562
9693.25	1.14856429
9693.5	0.724094881
9693.75	0.998726624
9694.0	0.848896435
9694.25	0.973782772
9694.5	1.14853562
9694.75	0.599221013
9695.0	0.848938826
9695.25	0.898876404
9695.5	0.724076802
9695.75	0.973807086
9696.0	0.798981299
9696.25	1.09859929
9696.5	0.574282147
9696.75	0.948790292
9697.0	0.823970037
9697.25	0.599250936
9697.5	1.27340824
9697.75	0.699108636
9698.0	0.948742916
9698.25	0.898853961
9698.5	0.923822127
9698.75	0.873907615
9699.0	0.774032459
9699.25	0.724076802
9699.5	0.74906367
9699.75	0.948813983
9700.0	0.649156097
