Energy_(eV)	Live_Counts
9550.0	2.7651395300000003
9550.25	3.012504228
9550.5	3.0123335479999995
9550.75	2.913251108
9551.0	3.259064266
9551.25	2.617064524
9551.5	3.3582930080000004
9551.75	3.3580246880000004
9552.0	3.1113428999999995
9552.25	3.3086664379999995
9552.5	3.4072001700000003
9552.75	3.160493824
9553.0	3.456717058
9553.25	3.703947626
9553.5	3.160518304
9553.75	3.160493922
9554.0	3.0613383059999997
9554.25	4.345459586
9554.5	3.90099076
9554.75	3.209876542
9555.0	3.061728392
9555.25	4.346045218
9555.5	3.061252974
9555.75	4.395098411999999
9556.0	4.197530861999999
9556.25	3.506075406
9556.5	4.790123456000001
9556.75	4.790464954
9557.0	3.4072001700000003
9557.25	4.197530862
9557.5	4.69183368
9557.75	4.592300212
9558.0	4.543246578
9558.25	5.826758218
9558.5	4.2965158279999995
9558.75	5.235104536
9559.0	5.185416915999999
9559.25	5.580246914
9559.5	5.530718018
9559.75	6.716488452
9560.0	6.665910874
9560.25	7.309483520000001
9560.5	6.8641975340000005
9560.75	8.098046208
9561.0	8.100046254
9561.25	8.493986003999998
9561.5	8.197116398000002
9561.75	8.296869524
9562.0	8.492900932000001
9562.25	10.518043108
9562.5	10.370870413999999
9562.75	11.0617284
9563.0	11.30805684
9563.25	12.790794254000001
9563.5	13.233873066000001
9563.75	14.02327766
9564.0	15.653552999999999
9564.25	15.16132318
9564.5	17.77782742
9564.75	17.82712434
9565.0	19.50502696
9565.25	19.35768372
9565.5	20.88693848
9565.75	22.274727699999996
9566.0	19.557567940000002
9566.25	22.51938624
9566.5	24.6902006
9566.75	24.14680724
9567.0	27.061510879999997
9567.25	29.925975419999997
9567.5	28.691541660000002
9567.75	32.89198752
9568.0	36.985728280000004
9568.25	37.92586594000001
9568.5	43.51057568
9568.75	48.3505697
9569.0	50.86916142
9569.25	56.44729838000001
9569.5	61.484420820000004
9569.75	69.88321458
9570.0	74.87215122
9570.25	81.74430486
9570.5	92.0531295
9570.75	99.32326782
9571.0	108.356302
9571.25	110.33183
9571.5	112.4609704
9571.75	114.41975299999999
9572.0	115.7532966
9572.25	122.3209876
9572.5	125.58657679999999
9572.75	136.112584
9573.0	137.63747499999997
9573.25	146.4770266
9573.5	148.44347259999998
9573.75	151.4296534
9574.0	151.3086418
9574.25	148.444338
9574.5	140.30365379999998
9574.75	142.2364588
9575.0	130.2286622
9575.25	115.74777420000001
9575.5	105.388146
9575.75	94.42465606
9576.0	85.17643257999998
9576.25	83.06172839999999
9576.5	73.28800149999998
9576.75	67.70050986
9577.0	63.60170786
9577.25	58.31811216
9577.5	53.44006292
9577.75	52.23873528
9578.0	46.47134332
9578.25	44.790123460000004
9578.5	41.97978468
9578.75	42.220175260000005
9579.0	41.82716048
9579.25	35.4126039
9579.5	34.86244214
9579.75	31.603318519999995
9580.0	29.6283504
9580.25	28.292202420000002
9580.5	24.7395217
9580.75	20.887841959999996
9581.0	21.976455619999996
9581.25	19.30962988
9581.5	17.677378859999997
9581.75	18.373016959999998
9582.0	17.87654324
9582.25	16.83770246
9582.5	15.60490246
9582.75	13.43269638
9583.0	14.46945322
9583.25	12.5444417
9583.5	11.506172848
9583.75	10.567901242000001
9584.0	10.468624086
9584.25	10.418826637999999
9584.5	9.481079214000001
9584.75	9.432562222
9585.0	9.284816549999999
9585.25	7.95060527
9585.5	6.962975330000001
9585.75	7.55587266
9586.0	7.753147558
9586.25	7.209498648
9586.5	5.629910145999999
9586.75	6.271324564
9587.0	6.568316227999999
9587.25	5.431842769999999
9587.5	5.53053506
9587.75	5.0866394139999995
9588.0	4.246987046
9588.25	4.839225795999999
9588.5	4.69189466
9588.75	4.049382714
9589.0	4.493473644
9589.25	4.493827156
9589.5	4.246669774
9589.75	3.95060528
9590.0	4.098765428
9590.25	4.296296293999999
9590.5	3.4075049739999996
9590.75	3.852095774
9591.0	3.654516126
9591.25	3.25905209
9591.5	3.407529368
9591.75	2.962572968
9592.0	3.2100350920000005
9592.25	2.765322384
9592.5	2.66622798
9592.75	2.765480924
9593.0	3.1606401799999997
9593.25	2.271580586
9593.5	2.81466853
9593.75	3.209876594
9594.0	2.617357126
9594.25	2.716220128
9594.5	2.419801924
9594.75	1.6294102584
9595.0	2.172839504
9595.25	2.7655907159999997
9595.5	2.518457564
9595.75	2.518311282
9596.0	2.123139842
9596.25	2.468977328
9596.5	2.3209876522000004
9596.75	2.0741472799999996
9597.0	1.7282487759999998
9597.25	1.7281390662
9597.5	2.173156608
9597.75	1.8272337239999998
9598.0	1.9258894439999998
9598.25	1.629568756
9598.5	1.48148148
9598.75	1.6298247877999998
9599.0	1.4814814801999998
9599.25	1.629629628
9599.5	1.7776315240000002
9599.75	1.728370722
9600.0	1.4320987646
9600.25	1.6793294482
9600.5	1.9258772002
9600.75	1.7284195266000002
9601.0	1.679073362
9601.25	1.6788660979999999
9601.5	1.3828624032
9601.75	1.4321597692
9602.0	1.2344704138
9602.25	2.2222222622
9602.5	1.6789270119999997
9602.75	1.333333332
9603.0	1.3826916984
9603.25	1.6790245759999998
9603.5	1.5803323292
9603.75	2.419753084
9604.0	2.0245328842
9604.25	1.7284804902000002
9604.5	1.1852705582000003
9604.75	1.6295930576
9605.0	0.8394696132
9605.25	1.3334553303999999
9605.5	1.4815302892
9605.75	1.2345313297999998
9606.0	1.1358878614
9606.25	1.1357658978
9606.5	1.3827160482
9606.75	1.1356683756
9607.0	1.4320987642000003
9607.25	1.1851364232000001
9607.5	0.8888889299999999
9607.75	1.2346410782
9608.0	1.382655096
9608.25	1.2836946517999999
9608.5	1.3828380112
9608.75	0.9876543202000001
9609.0	1.4815669074
9609.25	1.2839140632
9609.5	1.3332845714000001
9609.75	1.2345801438
9610.0	0.8888645079999999
9610.25	1.2840237944
9610.5	1.2346289170000002
9610.75	0.5432342687999999
9611.0	1.1356684054
9611.25	1.1359732582000002
9611.5	1.1850998528
9611.75	0.9876177498
9612.0	1.4815424622
9612.25	1.0369761462
9612.5	1.4814205282
9612.75	0.8888157646
9613.0	1.234567948
9613.25	1.4320134323999998
9613.5	0.6913092632
9613.75	0.6419631184
9614.0	1.2345435562
9614.25	1.7285292204
9614.5	1.7283951022
9614.75	1.3334675036
9615.0	0.987666535
9615.25	1.6790124473999999
9615.5	0.9876177922
9615.75	1.0371834102000002
9616.0	1.1850876868
9616.25	0.7900746956
9616.5	1.2346532744
9616.75	1.0862978499999998
9617.0	1.284011604
9617.25	0.8889498818
9617.5	1.4319646713999998
9617.75	0.8395061723999999
9618.0	1.1357293876
9618.25	0.7901234568
9618.5	0.5432586614
9618.75	0.9876543206000001
9619.0	1.0865173358
9619.25	1.3333211894
9619.5	0.8394817918000002
9619.75	1.1850876792
9620.0	0.7900381308
9620.25	0.83938427
9620.5	1.2841336156
9620.75	1.283938456
9621.0	1.1851851844
9621.25	1.5800884382
9621.5	1.1356318036
9621.75	0.8395061722000001
9622.0	0.6419997011999999
9622.25	0.88894987
9622.5	0.9878128724000002
9622.75	1.0863222296
9623.0	1.086346611
9623.25	0.9382350337999998
9623.5	1.135839057
9623.75	1.0863222298
9624.0	0.9383325866
9624.25	0.8394696253999999
9624.5	0.8888767345999999
9624.75	0.9382959972
9625.0	0.9383813712
9625.25	0.7901234564
9625.5	0.8393843002000001
9625.75	1.3825941456
9626.0	0.9875933686
9626.25	1.3827160486
9626.5	0.7407407408
9626.75	1.3332968034000001
9627.0	1.2346898689999999
9627.25	1.2840482106
9627.5	1.1358268975999999
9627.75	1.1851242324
9628.0	0.8888645079999999
9628.25	1.3825697652
9628.5	1.0370370364
9628.75	0.7899649825999999
9629.0	1.1357537074
9629.25	0.8889498701999999
9629.5	1.2347264524
9629.75	1.5308398155999998
9630.0	1.12357406
9630.25	1.0336931537999998
9630.5	1.053656339
9630.75	1.1435714094
9631.0	0.9587925225999999
9631.25	1.1635389608
9631.5	0.9088553174000001
9631.75	1.0237077570000002
9632.0	0.9737717988
9632.25	0.9687747996
9632.5	0.9837548268
9632.75	1.0636429802000003
9633.0	1.0187226
9633.25	1.0337064932
9633.5	0.9737628215999999
9633.75	0.9587824216000002
9634.0	0.9987266226000001
9634.25	1.0836258686
9634.5	1.0137277226
9634.75	1.1185820464
9635.0	1.0436817919999999
9635.25	1.1835096299999999
9635.5	1.0087188762
9635.75	1.0137046550000002
9636.0	1.0636603124000001
9636.25	0.9637778006000002
9636.5	0.9188412122
9636.75	1.0586562054000002
9637.0	0.8988742854
9637.25	1.0436842849999999
9637.5	0.9488094936
9637.75	1.15354172
9638.0	1.0486774186
9638.25	1.068647587
9638.5	1.028704756
9638.75	0.9687603362000001
9639.0	1.0187016545999998
9639.25	1.0087337156
9639.5	1.1485414768000002
9639.75	1.0586613165999998
9640.0	1.088603541
9640.25	1.0336900364
9640.5	1.0137237326
9640.75	1.0436900188
9641.0	1.0336996358000001
9641.25	1.0786339813999999
9641.5	0.9088530724
9641.75	1.0137228602000001
9642.0	1.1984776839999998
9642.25	1.0736467062000001
9642.5	1.0686533230000002
9642.75	0.898850594
9643.0	1.0686480844
9643.25	1.1385716679999998
9643.5	1.0336875421999998
9643.75	1.1285718068000001
9644.0	0.8738826794
9644.25	1.0437054800000003
9644.5	1.0586549582
9644.75	1.1135970174
9645.0	1.1035992788
9645.25	1.0586550844
9645.5	1.163523498
9645.75	1.0287042586
9646.0	1.1185803028
9646.25	1.213465066
9646.5	1.103605012
9646.75	1.15853398
9647.0	1.0736364805999998
9647.25	1.2783759399999997
9647.5	1.2034754324
9647.75	1.1335661886000001
9648.0	1.1984819232
9648.25	1.1735357014
9648.5	1.1934990119999997
9648.75	1.2334348612
9649.0	1.228453198
9649.25	1.2534076482
9649.5	1.233438228
9649.75	1.2334398483999998
9650.0	1.0686584350000001
9650.25	1.1735037821999998
9650.5	1.2234470954
9650.75	1.248416632
9651.0	1.198489776
9651.25	1.1685044140000003
9651.5	1.403210908
9651.75	1.4181851980000002
9652.0	1.563021626
9652.25	1.498090808
9652.5	1.55304197
9652.75	1.56801489
9653.0	1.5031056379999999
9653.25	1.607973552
9653.5	1.4881094039999998
9653.75	1.4231911739999998
9654.0	1.687872804
9654.25	1.4431835400000002
9654.5	1.498105518
9654.75	1.5879886740000002
9655.0	1.553043216
9655.25	1.8476744280000001
9655.5	1.80772175
9655.75	1.7228132760000001
9656.0	1.997482424
9656.25	2.342013684
9656.5	2.28211178
9656.75	2.5218100359999998
9657.0	2.8763925280000002
9657.25	3.0311825580000002
9657.5	3.1460206580000003
9657.75	3.32582711
9658.0	3.4456928839999996
9658.25	3.265884062
9658.5	3.066087618
9658.75	3.111082308
9659.0	3.146018414
9659.25	2.6266531399999997
9659.5	2.5817594440000002
9659.75	2.187267662
9660.0	2.0923443720000003
9660.25	2.0973259079999997
9660.5	1.752800882
9660.75	1.75779589
9661.0	1.523072188
9661.25	1.4581562060000002
9661.5	1.3532943980000003
9661.75	1.2983722919999998
9662.0	1.3283256099999998
9662.25	1.0886176318
9662.5	1.2184464820000003
9662.75	1.0786402154
9663.0	1.0286873008000001
9663.25	1.0886199998000001
9663.5	1.0736423432
9663.75	1.0936141332000002
9664.0	0.9987266229999999
9664.25	1.188490294
9664.5	1.0636527088
9664.75	1.15354147
9665.0	1.118590279
9665.25	1.0836191352
9665.5	0.9238221271999999
9665.75	1.133578408
9666.0	1.023703642
9666.25	1.0586535884000001
9666.5	1.1735077734000001
9666.75	1.0037407056
9667.0	1.0187039
9667.25	0.9438148639999999
9667.5	1.0736403458
9667.75	0.9538043713999999
9668.0	0.9837604366000001
9668.25	0.9587928951999999
9668.5	0.9937540624000001
9668.75	1.0187141236
9669.0	0.9787567031999999
9669.25	0.9837483411999999
9669.5	0.9288244878
9669.75	1.02371561
9670.0	0.9338177465999999
9670.25	0.9687780416
9670.5	0.8339535634
9670.75	0.9837505876
9671.0	0.8289507032
9671.25	0.8089850225999999
9671.5	1.1335491059999998
9671.75	0.948798521
9672.0	0.7989817978
9672.25	0.9787624402
9672.5	0.9488026360000001
9672.75	0.8139673104
9673.0	0.9238318515999999
9673.25	0.9787601956000002
9673.5	0.9637804190000001
9673.75	0.9837547014
9674.0	0.9188284948
9674.25	0.9138348596
9674.5	0.8689096176
9674.75	0.9687706843999999
9675.0	0.8339600468
9675.25	0.943810747
9675.5	0.9987364748
9675.75	0.9088455912000001
9676.0	0.9138397234
9676.25	0.9188336060000001
9676.5	0.988753448
9676.75	0.9438103746
9677.0	0.9038484677999999
9677.25	0.8539284699999999
9677.5	0.8489176300000001
9677.75	0.9537866682
9678.0	0.8838785484
9678.25	0.8838817896
9678.5	0.903848218
9678.75	0.9488010162
9679.0	0.7989896526
9679.25	0.9188575452000001
9679.5	0.9038475948
9679.75	0.7740212376000001
9680.0	0.7690257344
9680.25	0.878886909
9680.5	0.9338283444
9680.75	0.8439234982
9681.0	0.7340716740000002
9681.25	0.6341907828
9681.5	0.7890062515999999
9681.75	0.7390623148
9682.0	0.7740198662
9682.25	0.8439370892
9682.5	0.699113125
9682.75	0.6941216114
9683.0	0.7190982556000001
9683.25	0.7840114966
9683.5	0.8189649339999999
9683.75	0.8089860209999999
9684.0	0.6391859118
9684.25	0.7840123689999999
9684.5	0.6691502041999999
9684.75	0.8339503214
9685.0	0.7890099922
9685.25	0.7290690638
9685.5	0.6941261002000001
9685.75	0.7740150036
9686.0	0.734068183
9686.25	0.7190861611999999
9686.5	0.7091069994
9686.75	0.7390666789999999
9687.0	0.7140854213999999
9687.25	0.7590473209999999
9687.5	0.6941187437999999
9687.75	0.8239538284
9688.0	0.689124612
9688.25	0.6891272304
9688.5	0.7041198497999999
9688.75	0.6841277370000001
9689.0	0.7790192344
9689.25	0.8239601876
9689.5	0.6841408292
9689.75	0.6741504456
9690.0	0.6991051454000001
9690.25	0.659166429
9690.5	0.6691499548000002
9690.75	0.7090921624
9691.0	0.664166795
9691.25	0.7690343376
9691.5	0.7240907666
9691.75	0.744055449
9692.0	0.7090995185999999
9692.25	0.6641662962
9692.5	0.7240832856
9692.75	0.6791440786
9693.0	0.7640450686
9693.25	0.6491795374
9693.5	0.7091036338000001
9693.75	0.5942606698
9694.0	0.6791343536000001
9694.25	0.6142201152
9694.5	0.5942514430000001
9694.75	0.6641564464
9695.0	0.7240955048
9695.25	0.674150196
9695.5	0.6691541942
9695.75	0.7041085041999999
9696.0	0.6941208640000001
9696.25	0.6591664292
9696.5	0.6441947562
9696.75	0.6192172394
9697.0	0.7041057607999999
9697.25	0.5143594225999999
9697.5	0.5892588076
9697.75	0.6641631794
9698.0	0.7041102496
9698.25	0.7540460818000001
9698.5	0.764025867
9698.75	0.6242007732
9699.0	0.6491723053999999
9699.25	0.6841352181999999
9699.5	0.6541695541999999
9699.75	0.6841304806
9700.0	0.6192228502000001
